# k-axis, Phonon energy [meV], band-1, band-2, band-3, band-4, band-5, band-6, band-7
     1     0.000000    0.000000     0.000000     0.000000 
     2     0.011920    0.420224     0.420224     0.558828 
     3     0.023840    0.839963     0.839963     1.117542 
     4     0.035760    1.258733     1.258733     1.676025 
     5     0.047680    1.676051     1.676051     2.234151 
     6     0.059600    2.091438     2.091438     2.791780 
     7     0.071520    2.504422     2.504422     3.348757 
     8     0.083441    2.914533     2.914533     3.904904 
     9     0.095361    3.321306     3.321306     4.460022 
    10     0.107281    3.724289     3.724289     5.013884 
    11     0.119201    4.123031     4.123031     5.566231 
    12     0.131121    4.517096     4.517096     6.116774 
    13     0.143041    4.906055     4.906055     6.665190 
    14     0.154961    5.289490     5.289490     7.211119 
    15     0.166881    5.666996     5.666996     7.754164 
    16     0.178801    6.038177     6.038177     8.293893 
    17     0.190721    6.402653     6.402653     8.829831 
    18     0.202641    6.760055     6.760055     9.361474 
    19     0.214561    7.110029     7.110029     9.888274 
    20     0.226482    7.452232     7.452232    10.409653 
    21     0.238402    7.786339     7.786339    10.924997 
    22     0.250322    8.112040     8.112040    11.433660 
    23     0.262242    8.429036     8.429036    11.934967 
    24     0.274162    8.737043     8.737043    12.428214 
    25     0.286082    9.035798     9.035798    12.912691 
    26     0.298002    9.325044     9.325044    13.387633 
    27     0.309922    9.604547     9.604547    13.852285 
    28     0.321842    9.874082     9.874082    14.305866 
    29     0.333762   10.133440    10.133440    14.747607 
    30     0.345682   10.382426    10.382426    15.176702 
    31     0.357602   10.620860    10.620860    15.592369 
    32     0.369523   10.848574    10.848574    15.993804 
    33     0.381443   11.065411    11.065411    16.380238 
    34     0.393363   11.271231    11.271231    16.750888 
    35     0.405283   11.465903    11.465903    17.105000 
    36     0.417203   11.649307    11.649307    17.441841 
    37     0.429123   11.821336    11.821336    17.760681 
    38     0.441043   11.981890    11.981890    18.060848 
    39     0.452963   12.130881    12.130881    18.341663 
    40     0.464883   12.268233    12.268233    18.602505 
    41     0.476803   12.393873    12.393873    18.842790 
    42     0.488723   12.507735    12.507735    19.061962 
    43     0.500643   12.609770    12.609770    19.259524 
    44     0.512564   12.699941    12.699941    19.435006 
    45     0.524484   12.778185    12.778185    19.587997 
    46     0.536404   12.844477    12.844477    19.718139 
    47     0.548324   12.898792    12.898792    19.825133 
    48     0.560244   12.941107    12.941107    19.908696 
    49     0.572164   12.971395    12.971395    19.968640 
    50     0.584084   12.989657    12.989657    20.004830 
    51     0.596004   12.995881    12.995881    20.017166 
    52     0.596004   12.995881    12.995894    20.017166 
    53     0.612862   12.983781    13.020318    20.005884 
    54     0.629719   12.948322    13.091296    19.972794 
    55     0.646577   12.889630    13.206746    19.917945 
    56     0.663434   12.807940    13.363370    19.841449 
    57     0.680292   12.703574    13.556791    19.743443 
    58     0.697149   12.576928    13.781865    19.624088 
    59     0.714007   12.428511    14.032850    19.483606 
    60     0.730864   12.258875    14.303672    19.322246 
    61     0.747722   12.068699    14.588094    19.140280 
    62     0.764579   11.858718    14.879931    18.938044 
    63     0.781437   11.629747    15.173106    18.715884 
    64     0.798295   11.382672    15.461819    18.474173 
    65     0.815152   11.118453    15.740575    18.213319 
    66     0.832010   10.838112    16.004231    17.933769 
    67     0.848867   10.542735    16.248001    17.635969 
    68     0.865725   10.233458    16.467507    17.320428 
    69     0.882582    9.911477    16.658771    16.987628 
    70     0.899440    9.578028    16.638104    16.818160 
    71     0.916297    9.234391    16.272400    16.942462 
    72     0.933155    8.881881    15.891075    17.028814 
    73     0.950012    8.521841    15.494698    17.074699 
    74     0.966870    8.155639    15.083841    17.077972 
    75     0.983728    7.784660    14.659098    17.036798 
    76     1.000585    7.410296    14.221064    16.949690 
    77     1.017443    7.033946    13.770322    16.815457 
    78     1.034300    6.657004    13.307480    16.633231 
    79     1.051158    6.280852    12.833133    16.402442 
    80     1.068015    5.906852    12.347870    16.122768 
    81     1.084873    5.536341    11.852287    15.794209 
    82     1.101730    5.170616    11.346968    15.417025 
    83     1.118588    4.810927    10.832486    14.991711 
    84     1.135445    4.458475    10.309411    14.519025 
    85     1.152303    4.114383     9.778298    13.999983 
    86     1.169160    3.779704     9.239693    13.435799 
    87     1.186018    3.455393     8.694132    12.827938 
    88     1.202876    3.142300     8.142136    12.178057 
    89     1.219733    2.841152     7.584212    11.488015 
    90     1.236591    2.552531     7.020856    10.759863 
    91     1.253448    2.276865     6.452550     9.995829 
    92     1.270306    2.014395     5.879761     9.198304 
    93     1.287163    1.765159     5.302946     8.369834 
    94     1.304021    1.528968     4.722546     7.513104 
    95     1.320878    1.305388     4.138992     6.630928 
    96     1.337736    1.093715     3.552704     5.726231 
    97     1.354593    0.892967     2.964094     4.802044 
    98     1.371451    0.701882     2.373561     3.861481 
    99     1.388309    0.518923     1.781500     2.907728 
   100     1.405166    0.342308     1.188298     1.944032 
   101     1.422024    0.170046     0.594338     0.973683 
   102     1.438881    0.000000     0.000000     0.000000 
   103     1.438881    0.000000     0.000000     0.000000 
   104     1.449204    0.226593     0.226593     0.629574 
   105     1.459527    0.452963     0.452963     1.258527 
   106     1.469850    0.678886     0.678886     1.886239 
   107     1.480174    0.904140     0.904140     2.512090 
   108     1.490497    1.128502     1.128502     3.135464 
   109     1.500820    1.351750     1.351750     3.755746 
   110     1.511143    1.573666     1.573666     4.372325 
   111     1.521466    1.794030     1.794030     4.984590 
   112     1.531789    2.012624     2.012624     5.591939 
   113     1.542112    2.229234     2.229234     6.193774 
   114     1.552435    2.443646     2.443646     6.789501 
   115     1.562758    2.655647     2.655647     7.378532 
   116     1.573081    2.865028     2.865028     7.960285 
   117     1.583404    3.071585     3.071585     8.534188 
   118     1.593728    3.275111     3.275111     9.099675 
   119     1.604051    3.475409     3.475410     9.656187 
   120     1.614374    3.672279     3.672279    10.203176 
   121     1.624697    3.865527     3.865527    10.740102 
   122     1.635020    4.054963     4.054963    11.266436 
   123     1.645343    4.240399     4.240400    11.781659 
   124     1.655666    4.421654     4.421654    12.285263 
   125     1.665989    4.598548     4.598548    12.776747 
   126     1.676312    4.770907     4.770907    13.255632 
   127     1.686635    4.938560     4.938560    13.721449 
   128     1.696958    5.101343     5.101343    14.173728 
   129     1.707282    5.259095     5.259095    14.612035 
   130     1.717605    5.411660     5.411661    15.035935 
   131     1.727928    5.558889     5.558889    15.444994 
   132     1.738251    5.700635     5.700635    15.838829 
   133     1.748574    5.836759     5.836759    16.217030 
   134     1.758897    5.967126     5.967126    16.579250 
   135     1.769220    6.091609     6.091609    16.925117 
   136     1.779543    6.210084     6.210084    17.254297 
   137     1.789866    6.322434     6.322434    17.566453 
   138     1.800189    6.428549     6.428549    17.861278 
   139     1.810513    6.528324     6.528324    18.138497 
   140     1.820836    6.621660     6.621661    18.397826 
   141     1.831159    6.708467     6.708467    18.639017 
   142     1.841482    6.788658     6.788658    18.861821 
   143     1.851805    6.862153     6.862153    19.066016 
   144     1.862128    6.928880     6.928880    19.251416 
   145     1.872451    6.988774     6.988775    19.417834 
   146     1.882774    7.041775     7.041776    19.565098 
   147     1.893097    7.087832     7.087832    19.693058 
   148     1.903420    7.126899     7.126900    19.801602 
   149     1.913743    7.158937     7.158937    19.890620 
   150     1.924067    7.183914     7.183914    19.960011 
   151     1.934390    7.201807     7.201807    20.009727 
   152     1.944713    7.212597     7.212598    20.039706 
   153     1.955036    7.216274     7.216274    20.049922 
