# k-axis, Phonon energy [meV], band-1, band-2, band-3, band-4, band-5, band-6, band-7
     1     0.000000    0.000000     0.000000     0.000000 
     2     0.017152    0.433216     0.433216     0.864988 
     3     0.034304    0.865304     0.865304     1.727415 
     4     0.051456    1.295142     1.295142     2.584728 
     5     0.068608    1.721620     1.721620     3.434403 
     6     0.085760    2.143640     2.143640     4.273950 
     7     0.102911    2.560130     2.560130     5.100926 
     8     0.120063    2.970045     2.970045     5.912950 
     9     0.137215    3.372368     3.372368     6.707710 
    10     0.154367    3.766122     3.766122     7.482977 
    11     0.171519    4.150371     4.150371     8.236616 
    12     0.188671    4.524227     4.524227     8.966597 
    13     0.205823    4.886851     4.886851     9.671004 
    14     0.222975    5.237464     5.237464    10.348046 
    15     0.240127    5.575342     5.575342    10.996069 
    16     0.257279    5.899828     5.899828    11.613560 
    17     0.274430    6.210332     6.210332    12.199163 
    18     0.291582    6.506335     6.506335    12.751678 
    19     0.308734    6.787394     6.787394    13.270088 
    20     0.325886    7.053142     7.053142    13.753548 
    21     0.343038    7.303291     7.303291    14.201388 
    22     0.360190    7.537639     7.537639    14.613138 
    23     0.377342    7.756065     7.756065    14.988537 
    24     0.394494    7.958534     7.958534    15.327499 
    25     0.411646    8.145098     8.145098    15.630183 
    26     0.428798    8.315897     8.315897    15.896939 
    27     0.445949    8.471157     8.471157    16.128323 
    28     0.463101    8.611191     8.611191    16.325128 
    29     0.480253    8.736397     8.736397    16.488373 
    30     0.497405    8.847257     8.847257    16.619259 
    31     0.514557    8.944334     8.944334    16.719249 
    32     0.531709    9.028265     9.028265    16.790004 
    33     0.548861    9.099765     9.099765    16.833372 
    34     0.566013    9.159613     9.159613    16.851448 
    35     0.583165    9.208649     9.208649    16.846489 
    36     0.600317    9.247770     9.247770    16.820962 
    37     0.617468    9.277914     9.277914    16.777457 
    38     0.634620    9.300055     9.300055    16.718740 
    39     0.651772    9.315193     9.315193    16.647700 
    40     0.668924    9.324337     9.324337    16.567286 
    41     0.686076    9.328498     9.328498    16.480513 
    42     0.703228    9.328668     9.328668    16.390416 
    43     0.720380    9.325810     9.325810    16.299985 
    44     0.737532    9.320844     9.320844    16.212121 
    45     0.754684    9.314625     9.314625    16.129562 
    46     0.771836    9.307931     9.307931    16.054877 
    47     0.788987    9.301454     9.301454    15.990345 
    48     0.806139    9.295777     9.295777    15.937939 
    49     0.823291    9.291367     9.291367    15.899245 
    50     0.840443    9.288570     9.288570    15.875441 
    51     0.857595    9.287592     9.287592    15.867246 
    52     0.857595    9.287592     9.287601    15.867246 
    53     0.881851    9.287670     9.320736    15.854984 
    54     0.906108    9.287677     9.416598    15.819228 
    55     0.930364    9.286981     9.571218    15.760561 
    56     0.954621    9.284611     9.778506    15.679961 
    57     0.978877    9.279354    10.030896    15.578781 
    58     1.003134    9.269887    10.320005    15.458620 
    59     1.027390    9.254919    10.637242    15.321374 
    60     1.051647    9.233346    10.974293    15.169102 
    61     1.075903    9.204394    11.323450    15.003948 
    62     1.100160    9.167742    11.677822    14.828120 
    63     1.124416    9.123630    12.031420    14.643761 
    64     1.148672    9.072916    12.379170    14.452869 
    65     1.172929    9.017108    12.716864    14.257229 
    66     1.197185    8.958332    13.041097    14.058340 
    67     1.221442    8.899255    13.349088    13.857369 
    68     1.245698    8.842939    13.638643    13.655070 
    69     1.269955    8.792655    13.451756    13.907928 
    70     1.294211    8.751627    13.247350    14.155429 
    71     1.318468    8.722747    13.041307    14.379746 
    72     1.342724    8.708287    12.832723    14.579478 
    73     1.366980    8.709616    12.620333    14.753186 
    74     1.391237    8.726970    12.402587    14.899235 
    75     1.415493    8.759304    12.177737    15.015763 
    76     1.439750    8.804245    11.943882    15.100640 
    77     1.464006    8.858153    11.699079    15.151472 
    78     1.488263    8.916257    11.441400    15.165568 
    79     1.512519    8.972891    11.169010    15.140053 
    80     1.536776    9.021744    10.880223    15.071864 
    81     1.561032    9.056151    10.573559    14.957840 
    82     1.585289    9.069355    10.247776    14.794843 
    83     1.609545    9.054757     9.901903    14.579825 
    84     1.633801    9.006132     9.535252    14.309933 
    85     1.658058    8.917805     9.147428    13.982626 
    86     1.682314    8.738317     8.784798    13.595758 
    87     1.706571    8.308086     8.602936    13.147695 
    88     1.730827    7.857156     8.368931    12.637331 
    89     1.755084    7.386183     8.080435    12.064257 
    90     1.779340    6.896029     7.736076    11.428702 
    91     1.803597    6.387738     7.335463    10.731647 
    92     1.827853    5.862506     6.879188     9.974817 
    93     1.852109    5.321648     6.368799     9.160691 
    94     1.876366    4.766580     5.806764     8.292495 
    95     1.900622    4.198787     5.196420     7.374169 
    96     1.924879    3.619807     4.541909     6.410335 
    97     1.949135    3.031213     3.848104     5.406236 
    98     1.973392    2.434598     3.120522     4.367678 
    99     1.997648    1.831563     2.365238     3.300948 
   100     2.021905    1.223714     1.588774     2.212729 
   101     2.046161    0.612659     0.797994     1.110015 
   102     2.070418    0.000000     0.000000     0.000000 
   103     2.070418    0.000000     0.000000     0.000000 
   104     2.085271    0.454344     0.454344     0.655650 
   105     2.100125    0.907293     0.907293     1.309890 
   106     2.114979    1.357457     1.357457     1.961315 
   107     2.129833    1.803460     1.803460     2.608534 
   108     2.144687    2.243946     2.243946     3.250177 
   109     2.159541    2.677584     2.677584     3.884898 
   110     2.174395    3.103074     3.103074     4.511389 
   111     2.189249    3.519157     3.519157     5.128374 
   112     2.204103    3.924618     3.924618     5.734629 
   113     2.218957    4.318288     4.318288     6.328976 
   114     2.233811    4.699060     4.699060     6.910296 
   115     2.248665    5.065886     5.065886     7.477530 
   116     2.263519    5.417786     5.417786     8.029691 
   117     2.278373    5.753852     5.753852     8.565860 
   118     2.293227    6.073257     6.073257     9.085194 
   119     2.308081    6.375254     6.375254     9.586932 
   120     2.322935    6.659184     6.659184    10.070397 
   121     2.337789    6.924480     6.924480    10.534997 
   122     2.352643    7.170675     7.170675    10.980234 
   123     2.367497    7.397398     7.397398    11.405696 
   124     2.382351    7.604385     7.604385    11.811071 
   125     2.397205    7.791478     7.791478    12.196138 
   126     2.412059    7.958636     7.958636    12.560773 
   127     2.426913    8.105923     8.105923    12.904942 
   128     2.441767    8.233528     8.233528    13.228703 
   129     2.456621    8.341755     8.341756    13.532231 
   130     2.471475    8.431033     8.431033    13.815748 
   131     2.486329    8.501911     8.501911    14.079615 
   132     2.501183    8.555061     8.555063    14.324228 
   133     2.516037    8.591286     8.591286    14.550082 
   134     2.530891    8.611503     8.611503    14.757749 
   135     2.545745    8.616760     8.616760    14.947872 
   136     2.560599    8.608223     8.608223    15.121134 
   137     2.575453    8.587172     8.587172    15.278279 
   138     2.590307    8.555003     8.555004    15.420099 
   139     2.605161    8.513213     8.513213    15.547414 
   140     2.620015    8.463393     8.463393    15.661067 
   141     2.634869    8.407214     8.407215    15.761912 
   142     2.649723    8.346417     8.346417    15.850806 
   143     2.664577    8.282780     8.282780    15.928591 
   144     2.679431    8.218110     8.218111    15.996110 
   145     2.694285    8.154203     8.154204    16.054133 
   146     2.709139    8.092818     8.092818    16.103403 
   147     2.723993    8.035637     8.035638    16.144614 
   148     2.738847    7.984235     7.984235    16.178386 
   149     2.753701    7.940028     7.940029    16.205265 
   150     2.768555    7.904246     7.904246    16.225697 
   151     2.783409    7.877888     7.877889    16.240053 
   152     2.798263    7.861696     7.861696    16.248596 
   153     2.813117    7.856127     7.856127    16.251484 
