# k-axis, Phonon energy [meV], band-1, band-2, band-3, band-4, band-5, band-6, band-7
     1     0.000000    0.000000     0.000000     0.000000 
     2     0.015978    0.333988     0.333988     0.556565 
     3     0.031955    0.667664     0.667664     1.112309 
     4     0.047933    1.000714     1.000714     1.666414 
     5     0.063911    1.332826     1.332826     2.218068 
     6     0.079889    1.663689     1.663689     2.766467 
     7     0.095866    1.992990     1.992990     3.310820 
     8     0.111844    2.320420     2.320420     3.850351 
     9     0.127822    2.645669     2.645669     4.384300 
    10     0.143800    2.968430     2.968430     4.911929 
    11     0.159777    3.288393     3.288393     5.432518 
    12     0.175755    3.605257     3.605257     5.945380 
    13     0.191733    3.918715     3.918715     6.449847 
    14     0.207710    4.228468     4.228468     6.945285 
    15     0.223688    4.534216     4.534216     7.431088 
    16     0.239666    4.835661     4.835661     7.906688 
    17     0.255644    5.132512     5.132512     8.371544 
    18     0.271621    5.424475     5.424475     8.825157 
    19     0.287599    5.711263     5.711263     9.267060 
    20     0.303577    5.992592     5.992592     9.696827 
    21     0.319555    6.268182     6.268182    10.114066 
    22     0.335532    6.537757     6.537757    10.518428 
    23     0.351510    6.801044     6.801044    10.909598 
    24     0.367488    7.057777     7.057777    11.287302 
    25     0.383465    7.307695     7.307695    11.651301 
    26     0.399443    7.550539     7.550539    12.001394 
    27     0.415421    7.786061     7.786061    12.337418 
    28     0.431399    8.014015     8.014015    12.659238 
    29     0.447376    8.234163     8.234163    12.966771 
    30     0.463354    8.446275     8.446275    13.259934 
    31     0.479332    8.650126     8.650126    13.538703 
    32     0.495310    8.845499     8.845499    13.803065 
    33     0.511287    9.032186     9.032186    14.053034 
    34     0.527265    9.209988     9.209988    14.288670 
    35     0.543243    9.378711     9.378711    14.509999 
    36     0.559220    9.538174     9.538174    14.717133 
    37     0.575198    9.688203     9.688203    14.910132 
    38     0.591176    9.828632     9.828632    15.089135 
    39     0.607154    9.959310     9.959310    15.254226 
    40     0.623131   10.080091    10.080091    15.405532 
    41     0.639109   10.190842    10.190842    15.543187 
    42     0.655087   10.291440    10.291440    15.667291 
    43     0.671065   10.381773    10.381773    15.777980 
    44     0.687042   10.461740    10.461740    15.875379 
    45     0.703020   10.531250    10.531250    15.959561 
    46     0.718998   10.590229    10.590229    16.030664 
    47     0.734975   10.638607    10.638607    16.088736 
    48     0.750953   10.676331    10.676331    16.133889 
    49     0.766931   10.703358    10.703358    16.166149 
    50     0.782909   10.719659    10.719659    16.185577 
    51     0.798886   10.725213    10.725213    16.192185 
    52     0.798886   10.725213    10.725221    16.192185 
    53     0.821482   10.716623    10.745111    16.182068 
    54     0.844078   10.691467    10.802946    16.152387 
    55     0.866674   10.649939    10.897134    16.103241 
    56     0.889270   10.592350    11.025134    16.034755 
    57     0.911866   10.519130    11.183599    15.947113 
    58     0.934462   10.430828    11.368547    15.840565 
    59     0.957058   10.328092    11.575540    15.715395 
    60     0.979654   10.211676    11.799850    15.571962 
    61     1.002250   10.082418    12.036609    15.410652 
    62     1.024846    9.941233    12.280942    15.231922 
    63     1.047441    9.789100    12.528055    15.036257 
    64     1.070037    9.627042    12.773325    14.824189 
    65     1.092633    9.456113    13.012321    14.596289 
    66     1.115229    9.277379    13.240866    14.353177 
    67     1.137825    9.091890    13.455053    14.095485 
    68     1.160421    8.900670    13.651215    13.823882 
    69     1.183017    8.704690    13.539038    13.825977 
    70     1.205613    8.504841    13.241647    13.976253 
    71     1.228209    8.301920    12.932416    14.099179 
    72     1.250805    8.096608    12.612027    14.192189 
    73     1.273401    7.889451    12.281155    14.252952 
    74     1.295997    7.680846    11.940457    14.279397 
    75     1.318592    7.471035    11.590563    14.269701 
    76     1.341188    7.260094    11.232071    14.222254 
    77     1.363784    7.047937    10.865537    14.135728 
    78     1.386380    6.834321    10.491473    14.008996 
    79     1.408976    6.618857    10.110345    13.841177 
    80     1.431572    6.401027     9.722571    13.631626 
    81     1.454168    6.180206     9.328521    13.379934 
    82     1.476764    5.955690     8.928515    13.085915 
    83     1.499360    5.726724     8.522830    12.749620 
    84     1.521956    5.492528     8.111704    12.371343 
    85     1.544552    5.252333     7.695342    11.951593 
    86     1.567148    5.005412     7.273919    11.491117 
    87     1.589744    4.751102     6.847594    10.990888 
    88     1.612339    4.488840     6.416514    10.452100 
    89     1.634935    4.218173     5.980824     9.876172 
    90     1.657531    3.938788     5.540675     9.264733 
    91     1.680127    3.650514     5.096231     8.619617 
    92     1.702723    3.353344     4.647680     7.942859 
    93     1.725319    3.047431     4.195235     7.236682 
    94     1.747915    2.733087     3.739140     6.503482 
    95     1.770511    2.410786     3.279678     5.745826 
    96     1.793107    2.081154     2.817163     4.966423 
    97     1.815703    1.744955     2.351949     4.168123 
    98     1.838299    1.403079     1.884425     3.353888 
    99     1.860895    1.056524     1.415011     2.526786 
   100     1.883490    0.706380     0.944154     1.689958 
   101     1.906086    0.353804     0.472323     0.846613 
   102     1.928682    0.000000     0.000000     0.000000 
   103     1.928682    0.000000     0.000000     0.000000 
   104     1.942519    0.243305     0.243305     0.530325 
   105     1.956357    0.486249     0.486249     1.060000 
   106     1.970194    0.728474     0.728474     1.588376 
   107     1.984031    0.969624     0.969624     2.114809 
   108     1.997868    1.209345     1.209345     2.638658 
   109     2.011705    1.447292     1.447292     3.159291 
   110     2.025542    1.683121     1.683121     3.676081 
   111     2.039379    1.916504     1.916504     4.188416 
   112     2.053216    2.147112     2.147112     4.695690 
   113     2.067053    2.374632     2.374632     5.197316 
   114     2.080891    2.598763     2.598763     5.692714 
   115     2.094728    2.819211     2.819211     6.181327 
   116     2.108565    3.035699     3.035700     6.662608 
   117     2.122402    3.247962     3.247962     7.136033 
   118     2.136239    3.455749     3.455750     7.601095 
   119     2.150076    3.658827     3.658827     8.057305 
   120     2.163913    3.856973     3.856974     8.504199 
   121     2.177750    4.049988     4.049988     8.941328 
   122     2.191588    4.237681     4.237682     9.368271 
   123     2.205425    4.419885     4.419886     9.784623 
   124     2.219262    4.596446     4.596446    10.190007 
   125     2.233099    4.767226     4.767226    10.584065 
   126     2.246936    4.932105     4.932107    10.966461 
   127     2.260773    5.090983     5.090985    11.336884 
   128     2.274610    5.243773     5.243774    11.695045 
   129     2.288447    5.390401     5.390402    12.040675 
   130     2.302284    5.530815     5.530815    12.373526 
   131     2.316122    5.664971     5.664971    12.693370 
   132     2.329959    5.792843     5.792844    13.000010 
   133     2.343796    5.914418     5.914419    13.293260 
   134     2.357633    6.029693     6.029694    13.572946 
   135     2.371470    6.138678     6.138679    13.838908 
   136     2.385307    6.241391     6.241392    14.091034 
   137     2.399144    6.337863     6.337864    14.329199 
   138     2.412981    6.428126     6.428127    14.553306 
   139     2.426819    6.512226     6.512227    14.763241 
   140     2.440656    6.590208     6.590209    14.958968 
   141     2.454493    6.662122     6.662124    15.140388 
   142     2.468330    6.728025     6.728026    15.307451 
   143     2.482167    6.787971     6.787972    15.460132 
   144     2.496004    6.842014     6.842015    15.598370 
   145     2.509841    6.890208     6.890210    15.722152 
   146     2.523678    6.932606     6.932608    15.831440 
   147     2.537515    6.969256     6.969258    15.926223 
   148     2.551353    7.000201     7.000203    16.006475 
   149     2.565190    7.025482     7.025483    16.072197 
   150     2.579027    7.045129     7.045130    16.123376 
   151     2.592864    7.059170     7.059172    16.160012 
   152     2.606701    7.067624     7.067625    16.182080 
   153     2.620538    7.070503     7.070503    16.189606 
