# k-axis, Phonon energy [meV], band-1, band-2, band-3, band-4, band-5, band-6, band-7
     1     0.000000    0.000000     0.000000     0.000000    15.651310    15.651310    15.651310    21.355381    21.355381    21.355381    35.311649    35.311649    35.311649 
     2     0.011647    0.354246     0.354246     0.822064    15.650652    15.650652    15.657831    21.345736    21.345736    21.351315    35.307756    35.312901    35.312901 
     3     0.023294    0.708046     0.708046     1.642971    15.648669    15.648669    15.677296    21.316848    21.316848    21.339128    35.296127    35.316658    35.316658 
     4     0.034940    1.060950     1.060950     2.461565    15.645383    15.645383    15.709431    21.268868    21.268868    21.318857    35.276885    35.322844    35.322844 
     5     0.046587    1.412503     1.412503     3.276698    15.640833    15.640833    15.753767    21.202055    21.202055    21.290577    35.250217    35.331386    35.331386 
     6     0.058234    1.762239     1.762239     4.087234    15.635068    15.635068    15.809682    21.116757    21.116757    21.254375    35.216407    35.342160    35.342160 
     7     0.069881    2.109677     2.109677     4.892043    15.628150    15.628150    15.876383    21.013420    21.013420    21.210374    35.175829    35.355005    35.355005 
     8     0.081528    2.454320     2.454320     5.690017    15.620153    15.620153    15.952879    20.892564    20.892564    21.158712    35.128915    35.369771    35.369771 
     9     0.093175    2.795652     2.795652     6.480066    15.611165    15.611165    16.038090    20.754810    20.754810    21.099573    35.076198    35.386248    35.386248 
    10     0.104821    3.133128     3.133128     7.261119    15.601321    15.601321    16.130753    20.600852    20.600852    21.033145    35.018275    35.404237    35.404237 
    11     0.116468    3.466177     3.466177     8.032134    15.590721    15.590721    16.229503    20.431420    20.431420    20.959650    34.955851    35.423553    35.423553 
    12     0.128115    3.794196     3.794196     8.792093    15.579525    15.579525    16.332852    20.247335    20.247335    20.879348    34.889683    35.443960    35.443960 
    13     0.139762    4.116544     4.116544     9.540011    15.567921    15.567921    16.439227    20.049488    20.049488    20.792487    34.820626    35.465272    35.465272 
    14     0.151409    4.432539     4.432539    10.274935    15.556093    15.556093    16.546954    19.838808    19.838808    20.699391    34.749586    35.487291    35.487291 
    15     0.163055    4.741455     4.741455    10.995952    15.544265    15.544265    16.654308    19.616264    19.616264    20.600356    34.677553    35.509818    35.509818 
    16     0.174702    5.042517     5.042517    11.702186    15.532673    15.532673    16.759517    19.382897    19.382897    20.495729    34.605583    35.532693    35.532693 
    17     0.186349    5.334895     5.334895    12.392798    15.521602    15.521602    16.860772    19.139772    19.139772    20.385883    34.534765    35.555753    35.555753 
    18     0.197996    5.617705     5.617705    13.066996    15.511349    15.511349    16.956249    18.888018    18.888018    20.271176    34.466242    35.578863    35.578863 
    19     0.209643    5.890000     5.890000    13.724028    15.502236    15.502236    17.044175    18.628801    18.628801    20.152032    34.401152    35.601886    35.601886 
    20     0.221289    6.150775     6.150775    14.363195    15.494611    15.494611    17.122791    18.363360    18.363360    20.028870    34.340650    35.624723    35.624723 
    21     0.232936    6.398966     6.398966    14.983776    15.488859    15.488859    17.190472    18.092947    18.092947    19.902125    34.285876    35.647288    35.647288 
    22     0.244583    6.633447     6.633447    15.485375    15.485375    15.585055    17.245792    17.818914    17.818914    19.772244    34.237883    35.669505    35.669505 
    23     0.256230    6.853040     6.853040    15.484544    15.484544    16.166050    17.287746    17.542624    17.542624    19.639734    34.197664    35.691300    35.691300 
    24     0.267877    7.056530     7.056530    15.486801    15.486801    16.724133    17.265529    17.265529    17.317216    19.505054    34.166123    35.712625    35.712625 
    25     0.279524    7.242670     7.242670    15.492528    15.492528    16.989116    16.989116    17.217946    17.374074    19.368714    34.143968    35.733466    35.733466 
    26     0.291170    7.410213     7.410213    15.502100    15.502100    16.714959    16.714959    17.295086    17.809566    19.231244    34.131793    35.753774    35.753774 
    27     0.302817    7.557940     7.557940    15.515861    15.515861    16.444620    16.444620    17.273613    18.304767    19.093143    34.129946    35.773524    35.773524 
    28     0.314464    7.684697     7.684697    15.534074    15.534074    16.179774    16.179774    17.229922    18.782821    18.954967    34.138624    35.792716    35.792716 
    29     0.326111    7.789454     7.789454    15.556849    15.556849    15.922082    15.922082    17.166940    18.817250    19.240630    34.157730    35.811338    35.811338 
    30     0.337758    7.871354     7.871354    15.583183    15.583183    15.674246    15.674246    17.085622    18.680538    19.677548    34.187001    35.829352    35.829352 
    31     0.349404    7.929787     7.929787    15.432336    15.432336    15.618542    15.618542    16.986785    18.545400    20.093352    34.225931    35.846784    35.846784 
    32     0.361051    7.964457     7.964457    15.205267    15.205267    15.655215    15.655215    16.871496    18.412357    20.487968    34.273812    35.863608    35.863608 
    33     0.372698    7.975456     7.975456    14.990533    14.990533    15.696661    15.696661    16.741094    18.281992    20.861408    34.329752    35.879800    35.879800 
    34     0.384345    7.963320     7.963320    14.789413    14.789413    15.742162    15.742162    16.597190    18.154838    21.213734    34.392709    35.895371    35.895371 
    35     0.395992    7.929073     7.929073    14.602674    14.602674    15.791134    15.791134    16.441620    18.031453    21.545034    34.461493    35.910286    35.910286 
    36     0.407638    7.874248     7.874248    14.430726    14.430726    15.842908    15.842908    16.276504    17.912358    21.855418    34.534840    35.924532    35.924532 
    37     0.419285    7.800875     7.800875    14.273693    14.273693    15.896740    15.896740    16.104122    17.798085    22.145010    34.611435    35.938095    35.938095 
    38     0.430932    7.711446     7.711446    14.131414    14.131414    15.926967    15.951800    15.951800    17.689156    22.413960    34.689902    35.950927    35.950927 
    39     0.442579    7.608844     7.608844    14.003491    14.003491    15.747617    16.007231    16.007231    17.586042    22.662391    34.768889    35.963003    35.963003 
    40     0.454226    7.496268     7.496268    13.889331    13.889331    15.568789    16.062142    16.062142    17.489239    22.890440    34.847059    35.974297    35.974297 
    41     0.465873    7.377140     7.377140    13.788250    13.788250    15.393245    16.115664    16.115664    17.399180    23.098255    34.923133    35.984786    35.984786 
    42     0.477519    7.255010     7.255010    13.699480    13.699480    15.223765    16.166942    16.166942    17.316311    23.285936    34.995897    35.994407    35.994407 
    43     0.489166    7.133462     7.133462    13.622265    13.622265    15.063086    16.215158    16.215158    17.241006    23.453607    35.064197    36.003147    36.003147 
    44     0.500813    7.016033     7.016033    13.555899    13.555899    14.913877    16.259568    16.259568    17.173648    23.601366    35.127018    36.010958    36.010958 
    45     0.512460    6.906130     6.906130    13.499686    13.499686    14.778664    16.299502    16.299502    17.114546    23.729288    35.183429    36.017814    36.017814 
    46     0.524107    6.806941     6.806941    13.453082    13.453082    14.659792    16.334340    16.334340    17.064012    23.837461    35.232587    36.023678    36.023678 
    47     0.535753    6.721362     6.721362    13.415578    13.415578    14.559356    16.363587    16.363587    17.022280    23.925933    35.273798    36.028514    36.028514 
    48     0.547400    6.651911     6.651911    13.386790    13.386790    14.479165    16.386796    16.386796    16.989575    23.994779    35.306504    36.032307    36.032307 
    49     0.559047    6.600653     6.600653    13.366395    13.366395    14.420684    16.403645    16.403645    16.966043    24.044012    35.330233    36.035047    36.035047 
    50     0.570694    6.569121     6.569121    13.354196    13.354196    14.385003    16.413911    16.413911    16.951823    24.073668    35.344665    36.036696    36.036696 
    51     0.582341    6.558292     6.558292    13.350055    13.350055    14.372766    16.417419    16.417419    16.946963    24.083772    35.349599    36.037254    36.037254 
    52     0.582341    6.558303     6.558316    13.350055    13.350055    14.372766    16.417419    16.417419    16.946963    24.083772    35.349599    36.037254    36.037254 
    53     0.598812    6.582912     6.614700    13.355448    13.361647    14.337816    16.411282    16.442860    16.949120    24.065969    35.345830    36.032605    36.038692 
    54     0.615283    6.654494     6.776131    13.371156    13.395754    14.240926    16.393417    16.510826    16.956472    24.014021    35.334883    36.018992    36.042784 
    55     0.631754    6.770901     7.031157    13.396795    13.452561    14.095051    16.364269    16.604170    16.973110    23.928859    35.317116    35.996564    36.049193 
    56     0.648225    6.928863     7.363498    13.431758    13.532380    13.914213    16.324571    16.698804    17.008965    23.811971    35.293139    35.965532    36.057376 
    57     0.664696    7.124265     7.754653    13.475200    13.635643    13.709956    16.275351    16.768382    17.078679    23.665389    35.263743    35.926218    36.066625 
    58     0.681167    7.352476     8.186049    13.490847    13.526069    13.762784    16.217886    16.803753    17.182636    23.491631    35.229934    35.879019    36.076122 
    59     0.697638    7.608636     8.640407    13.263058    13.583125    13.914213    16.153739    16.815928    17.303492    23.293672    35.192864    35.824405    36.084962 
    60     0.714109    7.887883     9.102479    13.031104    13.645003    14.090042    16.084682    16.815060    17.426418    23.074798    35.153810    35.762936    36.092264 
    61     0.730580    8.185484     9.559413    12.798331    13.710242    14.289885    16.012748    16.805712    17.543443    22.838666    35.114136    35.695231    36.097124 
    62     0.747052    8.496911    10.000995    12.567270    13.777315    14.512429    15.940146    16.789657    17.650252    22.589144    35.075219    35.621983    36.098723 
    63     0.763523    8.817823    10.419811    12.339812    13.844797    14.755083    15.869242    16.767514    17.744476    22.330273    35.038447    35.543950    36.096343 
    64     0.779994    9.144013    10.811318    12.117361    13.911325    15.013718    15.802528    16.739445    17.824840    22.066246    35.005121    35.461925    36.089400 
    65     0.796465    9.471293    11.173712    11.900876    13.975869    15.282543    15.742559    16.705474    17.890835    21.801251    34.976469    35.376788    36.077436 
    66     0.812936    9.795345    11.507572    11.690915    14.037722    15.554481    15.691938    16.665627    17.942572    21.539393    34.953495    35.289432    36.060141 
    67     0.829407   10.111539    11.487650    11.815280    14.096799    15.653219    15.821571    16.619990    17.980720    21.284564    34.937056    35.200798    36.037403 
    68     0.845878   10.414707    11.290882    12.100405    14.153792    15.628844    16.075681    16.568749    18.006409    21.040224    34.927757    35.111867    36.009272 
    69     0.862349   10.698932    11.100052    12.367146    14.210340    15.621096    16.309185    16.512264    18.021224    20.809150    34.925972    35.023631    35.975958 
    70     0.878820   10.914248    10.957371    12.619937    14.269292    15.632031    16.451018    16.515500    18.027176    20.593090    34.931787    34.937118    35.937859 
    71     0.895291   10.732230    11.182268    12.863173    14.334580    15.663398    16.385668    16.689617    18.026605    20.392404    34.853344    34.945065    35.895545 
    72     0.911762   10.552451    11.365345    13.101115    14.410939    15.716622    16.317008    16.828537    18.022154    20.205628    34.773340    34.965410    35.849710 
    73     0.928233   10.373105    11.498722    13.337744    14.502883    15.792709    16.245967    16.931403    18.016674    20.029304    34.698121    34.992227    35.801221 
    74     0.944705   10.192170    11.576279    13.576715    14.613485    15.892215    16.173613    16.999468    18.013141    19.857963    34.628668    35.024710    35.750997 
    75     0.961176   10.007475    11.594867    13.821290    14.743069    16.015278    16.101047    17.035683    18.014579    19.684652    34.565959    35.061904    35.700066 
    76     0.977647    9.816775    11.554666    14.074172    14.888944    16.029436    16.161549    17.043915    18.023927    19.501608    34.510862    35.102780    35.649470 
    77     0.994118    9.617829    11.458499    14.337394    15.046089    15.959933    16.330249    17.028244    18.043938    19.301256    34.464208    35.146173    35.600212 
    78     1.010589    9.408488    11.310638    14.612084    15.208379    15.893641    16.520174    16.992228    18.077102    19.077088    34.426729    35.190917    35.553249 
    79     1.027060    9.186769    11.115737    14.898081    15.369701    15.831552    16.729725    16.938396    18.125504    18.824578    34.399032    35.235847    35.509434 
    80     1.043531    8.950934    10.878210    15.193117    15.524590    15.774558    16.868111    16.956955    18.190792    18.542288    34.381576    35.279823    35.469463 
    81     1.060002    8.699535    10.601990    15.490371    15.668506    15.723342    16.782181    17.199671    18.233726    18.274069    34.374670    35.321741    35.433831 
    82     1.076473    8.431455    10.290511    15.678424    15.768781    15.797891    16.686828    17.455392    17.911180    18.375869    34.378427    35.360633    35.402873 
    83     1.092944    8.145914     9.946786    15.640139    15.910093    15.950523    16.629140    17.602891    17.721515    18.496167    34.392746    35.376714    35.395621 
    84     1.109415    7.842468     9.573496    15.608586    15.867134    16.003326    16.718281    17.365804    17.995263    18.634330    34.417319    35.355277    35.425946 
    85     1.125886    7.520985     9.173076    15.526611    15.583740    16.076586    16.814540    17.329552    18.273834    18.789181    34.451612    35.338317    35.451015 
    86     1.142357    7.181613     8.747771    15.031670    15.565329    16.129525    16.748607    17.558866    18.554376    18.959046    34.494856    35.325460    35.470418 
    87     1.158829    6.824738     8.299691    14.433144    15.553006    16.162492    16.637434    17.884475    18.834050    19.141793    34.546060    35.316224    35.483882 
    88     1.175300    6.450945     7.830826    13.756474    15.546237    16.176390    16.526770    18.234073    19.110091    19.334879    34.604083    35.310074    35.491358 
    89     1.191771    6.060978     7.343074    13.015594    15.544426    16.172658    16.421461    18.588123    19.379797    19.535467    34.667548    35.306417    35.492957 
    90     1.208242    5.655713     6.838242    12.219018    15.546881    16.153181    16.321372    18.937895    19.640602    19.740443    34.735018    35.304669    35.489015 
    91     1.224713    5.236119     6.318056    11.372755    15.552869    16.120252    16.226242    19.277663    19.890037    19.946510    34.804905    35.304322    35.480014 
    92     1.241184    4.803241     5.784162    10.481637    15.561647    16.076437    16.136195    19.602862    20.125810    20.150246    34.875611    35.304880    35.466649 
    93     1.257655    4.358176     5.238125     9.549954    15.572409    16.024551    16.051678    19.909527    20.345775    20.348168    34.945511    35.305958    35.449738 
    94     1.274126    3.902070     4.681434     8.581751    15.584435    15.967558    15.973310    20.194098    20.536803    20.547974    35.012993    35.307223    35.430273 
    95     1.290597    3.436091     4.115502     7.580990    15.596982    15.901836    15.908419    20.453328    20.712781    20.730646    35.076546    35.308463    35.409333 
    96     1.307068    2.961436     3.541668     6.551620    15.609355    15.837986    15.850074    20.684290    20.872851    20.892205    35.134754    35.309529    35.388033 
    97     1.323539    2.479319     2.961203     5.497614    15.620959    15.782542    15.795312    20.884369    21.014015    21.031261    35.186330    35.310359    35.367551 
    98     1.340010    1.990964     2.375314     4.422985    15.631250    15.736149    15.746675    21.051296    21.133544    21.146649    35.230132    35.310942    35.348992 
    99     1.356482    1.497608     1.785158     3.331794    15.639742    15.699401    15.706382    21.183173    21.229095    21.237402    35.265218    35.311314    35.333358 
   100     1.372953    1.000495     1.191842     2.228139    15.646078    15.672808    15.676254    21.278477    21.298772    21.302764    35.290833    35.311525    35.321530 
   101     1.389424    0.500875     0.596440     1.116154    15.649995    15.656703    15.657620    21.336103    21.341161    21.342202    35.306417    35.311624    35.314153 
   102     1.405895    0.000000     0.000000     0.000000    15.651310    15.651310    15.651310    21.355381    21.355381    21.355381    35.311649    35.311649    35.311649 
   103     1.405895    0.000000     0.000000     0.000000    15.651310    15.651310    15.651310    21.355381    21.355381    21.355381    35.311649    35.311649    35.311649 
   104     1.415981    0.346894     0.346894     0.674117    15.652376    15.652723    15.652723    21.349282    21.349678    21.349678    35.310657    35.310657    35.312604 
   105     1.426068    0.693470     0.693470     1.347272    15.655587    15.656951    15.656951    21.331019    21.332569    21.332569    35.307669    35.307669    35.315467 
   106     1.436154    1.039411     1.039411     2.018504    15.660930    15.663906    15.663906    21.300781    21.304128    21.304128    35.302722    35.302722    35.320154 
   107     1.446241    1.384403     1.384403     2.686851    15.668444    15.673514    15.673514    21.258801    21.264467    21.264467    35.295829    35.295829    35.326588 
   108     1.456327    1.728135     1.728135     3.351359    15.678114    15.685602    15.685602    21.205452    21.213709    21.213709    35.287026    35.287026    35.334635 
   109     1.466413    2.070299     2.070299     4.011073    15.689991    15.699997    15.699997    21.141206    21.152067    21.152067    35.276377    35.276377    35.344132 
   110     1.476500    2.410595     2.410595     4.665045    15.704075    15.716473    15.716473    21.066582    21.079737    21.079737    35.263929    35.263929    35.354918 
   111     1.486586    2.748728     2.748728     5.312330    15.720416    15.734785    15.734785    20.982226    20.997005    20.997005    35.249746    35.249746    35.366758 
   112     1.496673    3.084410     3.084410     5.951985    15.739038    15.754647    15.754647    20.888807    20.904156    20.904156    35.233913    35.233913    35.379466 
   113     1.506759    3.417365     3.417365     6.583073    15.760003    15.775761    15.775761    20.787107    20.801538    20.801538    35.216519    35.216519    35.392819 
   114     1.516846    3.747320     3.747320     7.204656    15.783373    15.797817    15.797817    20.677918    20.689497    20.689497    35.197649    35.197649    35.406580 
   115     1.526932    4.074021     4.074021     7.815801    15.809198    15.820456    15.820456    20.562095    20.568443    20.568443    35.177416    35.177416    35.420553 
   116     1.537018    4.397218     4.397218     8.415565    15.837577    15.843355    15.843355    20.438797    20.438797    20.440521    35.155918    35.155918    35.434538 
   117     1.547105    4.716678     4.716678     9.002996    15.866142    15.866142    15.868634    20.301018    20.301018    20.314111    35.133279    35.133279    35.448324 
   118     1.557191    5.032176     5.032176     9.577128    15.888496    15.888496    15.902493    20.155577    20.155577    20.183783    35.109623    35.109623    35.461764 
   119     1.567278    5.343507     5.343507    10.136958    15.910043    15.910043    15.939365    20.002970    20.002970    20.050492    35.085063    35.085063    35.474707 
   120     1.577364    5.650475     5.650475    10.681441    15.930475    15.930475    15.979472    19.843730    19.843730    19.915180    35.059734    35.059734    35.487019 
   121     1.587451    5.952902     5.952902    11.209455    15.949469    15.949469    16.023163    19.678378    19.678378    19.778790    35.033748    35.033748    35.498623 
   122     1.597537    6.250623     6.250623    11.719767    15.966727    15.966727    16.070895    19.507472    19.507472    19.642251    35.007266    35.007266    35.509422 
   123     1.607624    6.543491     6.543491    12.210987    15.981952    15.981952    16.123289    19.331569    19.331569    19.506480    34.980399    34.980399    35.519377 
   124     1.617710    6.831372     6.831372    12.681480    15.994920    15.994920    16.181225    19.151253    19.151253    19.372408    34.953272    34.953272    35.528490 
   125     1.627796    7.114153     7.114153    13.129271    16.005384    16.005384    16.245942    18.967080    18.967080    19.240890    34.926034    34.926034    35.536735 
   126     1.637883    7.391732     7.391732    13.551919    16.013158    16.013158    16.319115    18.779660    18.779660    19.112819    34.898783    34.898783    35.544149 
   127     1.647969    7.664027     7.664027    13.946361    16.018080    16.018080    16.403112    18.589574    18.589574    18.989012    34.871656    34.871656    35.550769 
   128     1.658056    7.930968     7.930968    14.308854    16.020001    16.020001    16.500932    18.397417    18.397417    18.870326    34.844753    34.844753    35.556671 
   129     1.668142    8.192504     8.192504    14.635083    16.018811    16.018811    16.616159    18.203773    18.203773    18.757529    34.818196    34.818196    35.561915 
   130     1.678229    8.448596     8.448596    14.920844    16.014435    16.014435    16.752289    18.009273    18.009273    18.651390    34.792086    34.792086    35.566577 
   131     1.688315    8.699220     8.699220    15.163312    16.006773    16.006773    16.911442    17.814513    17.814513    18.552690    34.766521    34.766521    35.570742 
   132     1.698401    8.944361     8.944361    15.362511    15.995763    15.995763    17.092825    17.620174    17.620174    18.462159    34.741589    34.741589    35.574524 
   133     1.708488    9.184018     9.184018    15.521825    15.981295    15.981295    17.292197    17.426926    17.426926    18.380643    34.717388    34.717388    35.577995 
   134     1.718574    9.418194     9.418194    15.647069    15.963194    15.963194    17.235576    17.235576    17.502629    18.309292    34.693968    34.693968    35.581231 
   135     1.728661    9.646896     9.646896    15.744642    15.941125    15.941125    17.047064    17.047064    17.715242    18.250488    34.671429    34.671429    35.584330 
   136     1.738747    9.870135     9.870135    15.820307    15.914507    15.914507    16.862631    16.862631    17.915011    18.213468    34.649806    34.649806    35.587343 
   137     1.748834   10.087910    10.087910    15.878677    15.882222    15.882222    16.684051    16.684051    18.044731    18.250749    34.629189    34.629189    35.590319 
   138     1.758920   10.300213    10.300213    15.842239    15.842239    15.923247    16.514062    16.514062    18.056410    18.406753    34.609600    34.609600    35.593319 
   139     1.769007   10.507007    10.507007    15.790923    15.790923    15.956710    16.356979    16.356979    18.039239    18.589524    34.591102    34.591102    35.596344 
   140     1.779093   10.708227    10.708227    15.722697    15.722697    15.981146    16.219113    16.219113    18.022402    18.767733    34.573745    34.573745    35.599419 
   141     1.789179   10.903748    10.903748    15.631907    15.631907    15.998255    16.106886    16.106886    18.010178    18.935267    34.557541    34.557541    35.602543 
   142     1.799266   11.093368    11.093368    15.517709    15.517709    16.009475    16.021973    16.021973    18.003049    19.090168    34.542539    34.542539    35.605680 
   143     1.809352   11.276777    11.276777    15.386054    15.386054    15.959338    15.959338    16.016059    18.000507    19.231579    34.528752    34.528752    35.608817 
   144     1.819439   11.453497    11.453497    15.245015    15.245015    15.911928    15.911928    16.019084    18.001784    19.359155    34.516218    34.516218    35.611891 
   145     1.829525   11.622825    11.622825    15.101111    15.101111    15.874498    15.874498    16.019505    18.005938    19.472795    34.504961    34.504961    35.614879 
   146     1.839612   11.783731    11.783731    14.958931    14.958931    15.843962    15.843962    16.018129    18.012062    19.572512    34.494980    34.494980    35.617693 
   147     1.849698   11.934721    11.934721    14.822032    14.822032    15.818695    15.818695    16.015650    18.019290    19.658442    34.486302    34.486302    35.620285 
   148     1.859784   12.073663    12.073663    14.693787    14.693787    15.797842    15.797842    16.012649    18.026828    19.730760    34.478925    34.478925    35.622603 
   149     1.869871   12.197578    12.197578    14.577940    14.577940    15.780980    15.780980    16.009587    18.033982    19.789650    34.472887    34.472887    35.624599 
   150     1.879957   12.302483    12.302483    14.478955    14.478955    15.767925    15.767925    16.006847    18.040169    19.835287    34.468176    34.468176    35.626199 
   151     1.890044   12.383453    12.383453    14.402038    14.402038    15.758602    15.758602    16.004690    18.044917    19.867820    34.464791    34.464791    35.627376 
   152     1.900130   12.435206    12.435206    14.352656    14.352656    15.752986    15.752986    16.003314    18.047930    19.887371    34.462758    34.462758    35.628095 
   153     1.910217   12.453444    12.453444    14.335237    14.335237    15.751076    15.751076    16.002830    18.048971    19.894029    34.462051    34.462051    35.628343 
