# k-axis, Phonon energy [meV], band-1, band-2, band-3, band-4, band-5, band-6, band-7
     1     0.000000    0.000000     0.000000     0.000000 
     2     0.017294    0.600246     0.600246     1.231391 
     3     0.034588    1.199771     1.199771     2.459574 
     4     0.051882    1.797855     1.797855     3.681358 
     5     0.069176    2.393782     2.393782     4.893580 
     6     0.086470    2.986842     2.986842     6.093126 
     7     0.103764    3.576331     3.576331     7.276942 
     8     0.121058    4.161554     4.161554     8.442051 
     9     0.138351    4.741827     4.741827     9.585567 
    10     0.155645    5.316481     5.316481    10.704708 
    11     0.172939    5.884853     5.884853    11.796815 
    12     0.190233    6.446303     6.446303    12.859354 
    13     0.207527    7.000202     7.000202    13.889951 
    14     0.224821    7.545945     7.545945    14.886378 
    15     0.242115    8.082937     8.082937    15.846578 
    16     0.259409    8.610611     8.610611    16.768692 
    17     0.276703    9.128416     9.128416    17.651020 
    18     0.293997    9.635825     9.635825    18.492113 
    19     0.311291   10.132334    10.132334    19.290693 
    20     0.328585   10.617459    10.617459    20.045719 
    21     0.345879   11.090741    11.090741    20.756384 
    22     0.363173   11.551747    11.551747    21.422095 
    23     0.380466   12.000065    12.000065    22.042516 
    24     0.397760   12.435306    12.435306    22.617547 
    25     0.415054   12.857110    12.857110    23.147339 
    26     0.432348   13.265141    13.265141    23.632299 
    27     0.449642   13.659075    13.659075    24.073048 
    28     0.466936   14.038627    14.038627    24.470503 
    29     0.484230   14.403525    14.403525    24.825780 
    30     0.501524   14.753508    14.753508    25.140255 
    31     0.518818   15.088378    15.088378    25.415528 
    32     0.536112   15.407900    15.407900    25.653421 
    33     0.553406   15.711899    15.711899    25.855967 
    34     0.570700   16.000202    16.000202    26.025373 
    35     0.587994   16.272660    16.272660    26.164057 
    36     0.605288   16.529150    16.529150    26.274548 
    37     0.622581   16.769535    16.769535    26.359524 
    38     0.639875   16.993728    16.993728    26.421762 
    39     0.657169   17.201617    17.201617    26.464114 
    40     0.674463   17.393129    17.393129    26.489443 
    41     0.691757   17.568214    17.568214    26.500638 
    42     0.709051   17.726784    17.726784    26.500527 
    43     0.726345   17.868816    17.868816    26.491860 
    44     0.743639   17.994246    17.994246    26.477231 
    45     0.760933   18.103064    18.103064    26.459093 
    46     0.778227   18.195218    18.195218    26.439677 
    47     0.795521   18.270697    18.270697    26.420931 
    48     0.812815   18.329476    18.329476    26.404541 
    49     0.830109   18.371555    18.371555    26.391809 
    50     0.847403   18.396921    18.396921    26.383750 
    51     0.864696   18.405562    18.405562    26.380923 
    52     0.864696   18.405562    18.405575    26.380923 
    53     0.889154   18.388577    18.442955    26.368984 
    54     0.913611   18.338787    18.551574    26.333873 
    55     0.938068   18.256365    18.728134    26.275453 
    56     0.962526   18.141634    18.967502    26.193490 
    57     0.986983   17.995065    19.262971    26.087673 
    58     1.011440   17.817414    19.606718    25.957668 
    59     1.035898   17.609685    19.990200    25.803065 
    60     1.060355   17.373268    20.404566    25.623492 
    61     1.084812   17.109934    20.840964    25.418541 
    62     1.109270   16.821978    21.290825    25.187913 
    63     1.133727   16.512190    21.745993    24.931324 
    64     1.158184   16.183928    22.198892    24.648613 
    65     1.182641   15.841111    22.642554    24.339716 
    66     1.207099   15.488202    23.070608    24.004710 
    67     1.231556   15.130160    23.477262    23.643779 
    68     1.256013   14.772267    23.257247    23.857248 
    69     1.280471   14.420052    22.845621    24.205781 
    70     1.304928   14.079032    22.409472    24.518421 
    71     1.329385   13.754440    21.949543    24.791053 
    72     1.353843   13.450925    21.466641    25.019747 
    73     1.378300   13.172243    20.961671    25.200770 
    74     1.402757   12.920948    20.435611    25.330490 
    75     1.427215   12.698032    19.889442    25.405300 
    76     1.451672   12.502837    19.324167    25.421677 
    77     1.476129   12.332925    18.740792    25.376115 
    78     1.500586   12.184106    18.140245    25.265165 
    79     1.525044   12.050642    17.523420    25.085444 
    80     1.549501   11.925520    16.891122    24.833678 
    81     1.573958   11.800804    16.244083    24.506779 
    82     1.598416   11.668031    15.582910    24.101898 
    83     1.622873   11.518588    14.908149    23.616467 
    84     1.647330   11.344073    14.220221    23.048341 
    85     1.671788   11.136606    13.519486    22.395797 
    86     1.696245   10.889068    12.806241    21.657682 
    87     1.720702   10.595299    12.080723    20.833413 
    88     1.745160   10.250230    11.343145    19.923115 
    89     1.769617    9.849984    10.593731    18.927593 
    90     1.794074    9.391911     9.832722    17.848434 
    91     1.818531    8.874620     9.060414    16.688006 
    92     1.842989    8.277168     8.297955    15.449495 
    93     1.867446    7.483441     7.662968    14.136881 
    94     1.891903    6.679799     6.971867    12.754938 
    95     1.916361    5.866920     6.227934    11.309180 
    96     1.940818    5.045607     5.435457     9.805858 
    97     1.965275    4.216787     4.599617     8.251873 
    98     1.989733    3.381502     3.726389     6.654715 
    99     2.014190    2.540904     2.822422     5.022380 
   100     2.038647    1.696237     1.894913     3.363289 
   101     2.063105    0.848814     0.951474     1.686176 
   102     2.087562    0.000000     0.000000     0.000000 
   103     2.087562    0.000000     0.000000     0.000000 
   104     2.102539    0.562865     0.562865     1.021786 
   105     2.117516    1.124352     1.124352     2.041535 
   106     2.132493    1.683090     1.683090     3.057220 
   107     2.147470    2.237724     2.237724     4.066834 
   108     2.162447    2.786913     2.786913     5.068397 
   109     2.177424    3.329348     3.329348     6.059964 
   110     2.192401    3.863749     3.863749     7.039639 
   111     2.207378    4.388877     4.388877     8.005581 
   112     2.222355    4.903538     4.903538     8.956009 
   113     2.237332    5.406589     5.406589     9.889220 
   114     2.252309    5.896944     5.896944    10.803582 
   115     2.267286    6.373579     6.373579    11.697559 
   116     2.282263    6.835538     6.835538    12.569700 
   117     2.297240    7.281938     7.281938    13.418665 
   118     2.312217    7.711974     7.711974    14.243194 
   119     2.327194    8.124921     8.124921    15.042183 
   120     2.342171    8.520145     8.520145    15.814604 
   121     2.357148    8.897094     8.897094    16.559562 
   122     2.372125    9.255315     9.255315    17.276303 
   123     2.387102    9.594449     9.594449    17.964169 
   124     2.402079    9.914234     9.914236    18.622664 
   125     2.417055   10.214510    10.214510    19.251379 
   126     2.432032   10.495217    10.495217    19.850066 
   127     2.447009   10.756394    10.756394    20.418601 
   128     2.461986   10.998188    10.998188    20.956984 
   129     2.476963   11.220842    11.220842    21.465339 
   130     2.491940   11.424701    11.424702    21.943914 
   131     2.506917   11.610209    11.610209    22.393044 
   132     2.521894   11.777900    11.777900    22.813225 
   133     2.536871   11.928405    11.928405    23.205014 
   134     2.551848   12.062434    12.062434    23.569082 
   135     2.566825   12.180783    12.180785    23.906183 
   136     2.581802   12.284318    12.284318    24.217137 
   137     2.596779   12.373968    12.373968    24.502862 
   138     2.611756   12.450716    12.450716    24.764274 
   139     2.626733   12.515607    12.515607    25.002390 
   140     2.641710   12.569688    12.569688    25.218214 
   141     2.656687   12.614060    12.614060    25.412776 
   142     2.671664   12.649803    12.649803    25.587129 
   143     2.686641   12.678009    12.678009    25.742277 
   144     2.701618   12.699743    12.699743    25.879213 
   145     2.716595   12.716021    12.716021    25.998891 
   146     2.731572   12.727836    12.727836    26.102204 
   147     2.746549   12.736081    12.736081    26.189969 
   148     2.761526   12.741561    12.741561    26.262944 
   149     2.776503   12.745020    12.745020    26.321747 
   150     2.791480   12.747041    12.747041    26.366963 
   151     2.806457   12.748144    12.748144    26.398987 
   152     2.821434   12.748653    12.748653    26.418167 
   153     2.836411   12.748801    12.748801    26.424676 
