# k-axis, Phonon energy [meV], band-1, band-2, band-3, band-4, band-5, band-6, band-7
     1     0.000000    0.000000     0.000000     0.000000 
     2     0.016799    0.422999     0.422999     0.780913 
     3     0.033599    0.845411     0.845411     1.560368 
     4     0.050398    1.266648     1.266648     2.336911 
     5     0.067197    1.686129     1.686129     3.109106 
     6     0.083997    2.103280     2.103280     3.875532 
     7     0.100796    2.517528     2.517528     4.634795 
     8     0.117595    2.928318     2.928318     5.385535 
     9     0.134395    3.335103     3.335103     6.126428 
    10     0.151194    3.737346     3.737346     6.856193 
    11     0.167993    4.134531     4.134531     7.573601 
    12     0.184793    4.526154     4.526154     8.277476 
    13     0.201592    4.911729     4.911729     8.966705 
    14     0.218391    5.290792     5.290792     9.640235 
    15     0.235191    5.662898     5.662898    10.297085 
    16     0.251990    6.027622     6.027622    10.936346 
    17     0.268789    6.384565     6.384565    11.557187 
    18     0.285589    6.733348     6.733348    12.158855 
    19     0.302388    7.073617     7.073617    12.740681 
    20     0.319187    7.405044     7.405044    13.302075 
    21     0.335987    7.727326     7.727326    13.842553 
    22     0.352786    8.040182     8.040182    14.361682 
    23     0.369585    8.343359     8.343359    14.859152 
    24     0.386385    8.636630     8.636630    15.334714 
    25     0.403184    8.919789     8.919789    15.788233 
    26     0.419984    9.192660     9.192660    16.219634 
    27     0.436783    9.455084     9.455084    16.628941 
    28     0.453582    9.706931     9.706931    17.016243 
    29     0.470382    9.948091     9.948091    17.381723 
    30     0.487181   10.178473    10.178473    17.725619 
    31     0.503980   10.398009    10.398009    18.048265 
    32     0.520780   10.606649    10.606649    18.350032 
    33     0.537579   10.804359    10.804359    18.631355 
    34     0.554378   10.991123    10.991123    18.892729 
    35     0.571178   11.166937    11.166937    19.134676 
    36     0.587977   11.331809    11.331809    19.357754 
    37     0.604776   11.485763    11.485763    19.562569 
    38     0.621576   11.628826    11.628826    19.749729 
    39     0.638375   11.761035    11.761035    19.919867 
    40     0.655174   11.882434    11.882434    20.073577 
    41     0.671974   11.993068    11.993068    20.211492 
    42     0.688773   12.092987    12.092987    20.334220 
    43     0.705572   12.182240    12.182240    20.442306 
    44     0.722372   12.260878    12.260878    20.536320 
    45     0.739171   12.328946    12.328946    20.616733 
    46     0.755970   12.386487    12.386487    20.684005 
    47     0.772770   12.433545    12.433545    20.738519 
    48     0.789569   12.470144    12.470144    20.780623 
    49     0.806368   12.496316    12.496316    20.810551 
    50     0.823168   12.512074    12.512074    20.828516 
    51     0.839967   12.517442    12.517442    20.834616 
    52     0.839967   12.517442    12.517455    20.834616 
    53     0.863725   12.502267    12.547198    20.819800 
    54     0.887483   12.457833    12.633649    20.776345 
    55     0.911241   12.384580    12.774354    20.704412 
    56     0.934998   12.283207    12.965407    20.604236 
    57     0.958756   12.154693    13.201750    20.476190 
    58     0.982514   12.000301    13.477457    20.320719 
    59     1.006272   11.821576    13.786030    20.138381 
    60     1.030030   11.620342    14.120653    19.929859 
    61     1.053788   11.398696    14.474467    19.695909 
    62     1.077546   11.159007    14.840728    19.437448 
    63     1.101303   10.903895    15.212879    19.155443 
    64     1.125061   10.636212    15.584732    18.850985 
    65     1.148819   10.359015    15.950399    18.525265 
    66     1.172577   10.075525    16.304399    18.179559 
    67     1.196335    9.789069    16.641600    17.815219 
    68     1.220093    9.503012    16.957241    17.433634 
    69     1.243851    9.220677    17.036253    17.246883 
    70     1.267608    8.945229    16.624540    17.506422 
    71     1.291366    8.679571    16.199958    17.732054 
    72     1.315124    8.426208    15.763933    17.920230 
    73     1.338882    8.187120    15.317853    18.067705 
    74     1.362640    7.963641    14.863020    18.171451 
    75     1.386398    7.756347    14.400637    18.228705 
    76     1.410156    7.565000    13.931757    18.236950 
    77     1.433913    7.388514    13.457310    18.193916 
    78     1.457671    7.224980    12.978053    18.097559 
    79     1.481429    7.071756    12.494568    17.946105 
    80     1.505187    6.925576    12.007273    17.738079 
    81     1.528945    6.782723    11.516375    17.472241 
    82     1.552703    6.639195    11.021929    17.147674 
    83     1.576461    6.490886    10.523828    16.763782 
    84     1.600218    6.333764    10.021829    16.320281 
    85     1.623976    6.164009     9.515575    15.817244 
    86     1.647734    5.978146     9.004630    15.255082 
    87     1.671492    5.773137     8.488509    14.634599 
    88     1.695250    5.546456     7.966714    13.956962 
    89     1.719008    5.296134     7.438775    13.223719 
    90     1.742766    5.020785     6.904275    12.436831 
    91     1.766523    4.719609     6.362885    11.598607 
    92     1.790281    4.392396     5.814398    10.711762 
    93     1.814039    4.039500     5.258736     9.779364 
    94     1.837797    3.661817     4.695979     8.804839 
    95     1.861555    3.260743     4.126369     7.791946 
    96     1.885313    2.838138     3.550314     6.744751 
    97     1.909071    2.396277     2.968380     5.667603 
    98     1.932828    1.937796     2.381288     4.565095 
    99     1.956586    1.465644     1.789891     3.442037 
   100     1.980344    0.983015     1.195161     2.303410 
   101     2.004102    0.493296     0.598157     1.154330 
   102     2.027860    0.000000     0.000000     0.000000 
   103     2.027860    0.000000     0.000000     0.000000 
   104     2.042408    0.325031     0.325031     0.717251 
   105     2.056957    0.649230     0.649230     1.433453 
   106     2.071506    0.971767     0.971767     2.147562 
   107     2.086054    1.291821     1.291821     2.858540 
   108     2.100603    1.608585     1.608585     3.565362 
   109     2.115152    1.921264     1.921264     4.267017 
   110     2.129700    2.229085     2.229085     4.962513 
   111     2.144249    2.531300     2.531300     5.650877 
   112     2.158798    2.827185     2.827185     6.331168 
   113     2.173346    3.116053     3.116053     7.002465 
   114     2.187895    3.397244     3.397244     7.663886 
   115     2.202444    3.670140     3.670140     8.314577 
   116     2.216992    3.934164     3.934164     8.953728 
   117     2.231541    4.188783     4.188783     9.580561 
   118     2.246090    4.433512     4.433512    10.194342 
   119     2.260638    4.667914     4.667914    10.794382 
   120     2.275187    4.891606     4.891606    11.380036 
   121     2.289736    5.104260     5.104260    11.950705 
   122     2.304284    5.305604     5.305604    12.505838 
   123     2.318833    5.495425     5.495425    13.044928 
   124     2.333382    5.673570     5.673570    13.567516 
   125     2.347930    5.839950     5.839951    14.073193 
   126     2.362479    5.994538     5.994538    14.561612 
   127     2.377028    6.137368     6.137368    15.032451 
   128     2.391576    6.268540     6.268540    15.485437 
   129     2.406125    6.388217     6.388217    15.920371 
   130     2.420674    6.496624     6.496624    16.337055 
   131     2.435222    6.594050     6.594050    16.735378 
   132     2.449771    6.680842     6.680842    17.115216 
   133     2.464320    6.757407     6.757408    17.476531 
   134     2.478868    6.824209     6.824210    17.819298 
   135     2.493417    6.881762     6.881762    18.143518 
   136     2.507965    6.930627     6.930627    18.449241 
   137     2.522514    6.971412     6.971412    18.736527 
   138     2.537063    7.004761     7.004761    19.005465 
   139     2.551611    7.031348     7.031350    19.256164 
   140     2.566160    7.051877     7.051877    19.488726 
   141     2.580709    7.067061     7.067061    19.703298 
   142     2.595257    7.077624     7.077624    19.900017 
   143     2.609806    7.084288     7.084288    20.079045 
   144     2.624355    7.087763     7.087763    20.240491 
   145     2.638903    7.088735     7.088735    20.384531 
   146     2.653452    7.087858     7.087858    20.511276 
   147     2.668001    7.085740     7.085741    20.620887 
   148     2.682549    7.082936     7.082936    20.713450 
   149     2.697098    7.079934     7.079934    20.789090 
   150     2.711647    7.077147     7.077148    20.847882 
   151     2.726195    7.074908     7.074909    20.889911 
   152     2.740744    7.073459     7.073459    20.915215 
   153     2.755293    7.072949     7.072949    20.923832 
