# Temperature [K], Thermal Conductivity (xx, xy, xz, yx, yy, yz, zx, zy, zz) [W/mK]
      0.00         0.0000         0.0000         0.0000         0.0000         0.0000         0.0000         0.0000         0.0000         0.0000
     10.00      1604.3874         0.0287        -0.0000         0.0287      1604.4122        -0.0000        -0.0000        -0.0000      1137.1246
     20.00       389.4072         0.2623        -0.0000         0.2623       389.7200        -0.0000        -0.0000        -0.0000       358.6442
     30.00       211.8715         0.4076         0.0000         0.4076       212.3600         0.0000         0.0000         0.0000       198.1625
     40.00       164.9175         0.4354         0.0000         0.4354       165.4400         0.0000         0.0000         0.0000       152.4344
     50.00       141.0472         0.4158         0.0000         0.4158       141.5464         0.0000         0.0000         0.0000       129.7051
     60.00       124.2067         0.3830         0.0000         0.3830       124.6667         0.0000         0.0000         0.0000       114.0577
     70.00       110.9149         0.3493         0.0000         0.3493       111.3345         0.0000         0.0000         0.0000       101.8435
     80.00       100.0095         0.3184         0.0000         0.3184       100.3921         0.0000         0.0000         0.0000        91.8607
     90.00        90.8992         0.2912         0.0000         0.2912        91.2491         0.0000         0.0000         0.0000        83.5285
    100.00        83.1958         0.2675         0.0000         0.2675        83.5172         0.0000         0.0000         0.0000        76.4814
    110.00        76.6162         0.2469         0.0000         0.2469        76.9129         0.0000         0.0000         0.0000        70.4587
    120.00        70.9453         0.2290         0.0000         0.2290        71.2205         0.0000         0.0000         0.0000        65.2641
    130.00        66.0168         0.2133         0.0000         0.2133        66.2731         0.0000         0.0000         0.0000        60.7466
    140.00        61.7006         0.1995         0.0000         0.1995        61.9403         0.0000         0.0000         0.0000        56.7877
    150.00        57.8937         0.1873         0.0000         0.1873        58.1188         0.0000         0.0000         0.0000        53.2942
    160.00        54.5143         0.1764         0.0000         0.1764        54.7263         0.0000         0.0000         0.0000        50.1914
    170.00        51.4964         0.1667         0.0000         0.1667        51.6967         0.0000         0.0000         0.0000        47.4195
    180.00        48.7865         0.1580         0.0000         0.1580        48.9764         0.0000         0.0000         0.0000        44.9295
    190.00        46.3411         0.1501         0.0000         0.1501        46.5215         0.0000         0.0000         0.0000        42.6818
    200.00        44.1239         0.1429         0.0000         0.1429        44.2957         0.0000         0.0000         0.0000        40.6434
    210.00        42.1053         0.1364         0.0000         0.1364        42.2692         0.0000         0.0000         0.0000        38.7870
    220.00        40.2600         0.1304         0.0000         0.1304        40.4168         0.0000         0.0000         0.0000        37.0898
    230.00        38.5671         0.1250         0.0000         0.1250        38.7173         0.0000         0.0000         0.0000        35.5323
    240.00        37.0088         0.1199         0.0000         0.1199        37.1529         0.0000         0.0000         0.0000        34.0984
    250.00        35.5697         0.1153         0.0000         0.1153        35.7083         0.0000         0.0000         0.0000        32.7742
    260.00        34.2370         0.1109         0.0000         0.1109        34.3704         0.0000         0.0000         0.0000        31.5476
    270.00        32.9995         0.1069         0.0000         0.1069        33.1280         0.0000         0.0000         0.0000        30.4084
    280.00        31.8472         0.1032         0.0000         0.1032        31.9713         0.0000         0.0000         0.0000        29.3476
    290.00        30.7720         0.0997         0.0000         0.0997        30.8918         0.0000         0.0000         0.0000        28.3576
    300.00        29.7662         0.0965         0.0000         0.0965        29.8822         0.0000         0.0000         0.0000        27.4316
    310.00        28.8236         0.0934         0.0000         0.0934        28.9359         0.0000         0.0000         0.0000        26.5636
    320.00        27.9383         0.0906         0.0000         0.0906        28.0472         0.0000         0.0000         0.0000        25.7483
    330.00        27.1054         0.0879         0.0000         0.0879        27.2110         0.0000         0.0000         0.0000        24.9812
    340.00        26.3203         0.0853         0.0000         0.0853        26.4228         0.0000         0.0000         0.0000        24.2581
    350.00        25.5791         0.0829         0.0000         0.0829        25.6787         0.0000         0.0000         0.0000        23.5754
    360.00        24.8782         0.0806         0.0000         0.0806        24.9751         0.0000         0.0000         0.0000        22.9298
    370.00        24.2145         0.0785         0.0000         0.0785        24.3088         0.0000         0.0000         0.0000        22.3184
    380.00        23.5850         0.0765         0.0000         0.0765        23.6769         0.0000         0.0000         0.0000        21.7386
    390.00        22.9873         0.0745         0.0000         0.0745        23.0769         0.0000         0.0000         0.0000        21.1879
    400.00        22.4189         0.0727         0.0000         0.0727        22.5063         0.0000         0.0000         0.0000        20.6643
    410.00        21.8779         0.0709         0.0000         0.0709        21.9631         0.0000         0.0000         0.0000        20.1658
    420.00        21.3622         0.0692         0.0000         0.0692        21.4454         0.0000         0.0000         0.0000        19.6907
    430.00        20.8701         0.0677         0.0000         0.0677        20.9515         0.0000         0.0000         0.0000        19.2373
    440.00        20.4001         0.0661         0.0000         0.0661        20.4796         0.0000         0.0000         0.0000        18.8042
    450.00        19.9508         0.0647         0.0000         0.0647        20.0285         0.0000         0.0000         0.0000        18.3902
    460.00        19.5207         0.0633         0.0000         0.0633        19.5967         0.0000         0.0000         0.0000        17.9939
    470.00        19.1086         0.0619         0.0000         0.0619        19.1831         0.0000         0.0000         0.0000        17.6142
    480.00        18.7136         0.0607         0.0000         0.0607        18.7865         0.0000         0.0000         0.0000        17.2502
    490.00        18.3345         0.0594         0.0000         0.0594        18.4059         0.0000         0.0000         0.0000        16.9008
    500.00        17.9704         0.0583         0.0000         0.0583        18.0404         0.0000         0.0000         0.0000        16.5653
    510.00        17.6204         0.0571         0.0000         0.0571        17.6891         0.0000         0.0000         0.0000        16.2428
    520.00        17.2838         0.0560         0.0000         0.0560        17.3511         0.0000         0.0000         0.0000        15.9326
    530.00        16.9597         0.0550         0.0000         0.0550        17.0258         0.0000         0.0000         0.0000        15.6339
    540.00        16.6476         0.0540         0.0000         0.0540        16.7124         0.0000         0.0000         0.0000        15.3462
    550.00        16.3467         0.0530         0.0000         0.0530        16.4104         0.0000         0.0000         0.0000        15.0689
    560.00        16.0564         0.0521         0.0000         0.0521        16.1190         0.0000         0.0000         0.0000        14.8014
    570.00        15.7762         0.0511         0.0000         0.0511        15.8377         0.0000         0.0000         0.0000        14.5432
    580.00        15.5057         0.0503         0.0000         0.0503        15.5661         0.0000         0.0000         0.0000        14.2938
    590.00        15.2442         0.0494         0.0000         0.0494        15.3036         0.0000         0.0000         0.0000        14.0529
    600.00        14.9914         0.0486         0.0000         0.0486        15.0498         0.0000         0.0000         0.0000        13.8198
    610.00        14.7468         0.0478         0.0000         0.0478        14.8042         0.0000         0.0000         0.0000        13.5944
    620.00        14.5100         0.0470         0.0000         0.0470        14.5666         0.0000         0.0000         0.0000        13.3762
    630.00        14.2807         0.0463         0.0000         0.0463        14.3364         0.0000         0.0000         0.0000        13.1649
    640.00        14.0585         0.0456         0.0000         0.0456        14.1133         0.0000         0.0000         0.0000        12.9601
    650.00        13.8432         0.0449         0.0000         0.0449        13.8971         0.0000         0.0000         0.0000        12.7616
    660.00        13.6343         0.0442         0.0000         0.0442        13.6874         0.0000         0.0000         0.0000        12.5690
    670.00        13.4316         0.0435         0.0000         0.0435        13.4839         0.0000         0.0000         0.0000        12.3822
    680.00        13.2348         0.0429         0.0000         0.0429        13.2864         0.0000         0.0000         0.0000        12.2008
    690.00        13.0437         0.0423         0.0000         0.0423        13.0945         0.0000         0.0000         0.0000        12.0247
    700.00        12.8580         0.0417         0.0000         0.0417        12.9082         0.0000         0.0000         0.0000        11.8536
    710.00        12.6776         0.0411         0.0000         0.0411        12.7270         0.0000         0.0000         0.0000        11.6872
    720.00        12.5021         0.0405         0.0000         0.0405        12.5508         0.0000         0.0000         0.0000        11.5255
    730.00        12.3314         0.0400         0.0000         0.0400        12.3795         0.0000         0.0000         0.0000        11.3681
    740.00        12.1653         0.0394         0.0000         0.0394        12.2127         0.0000         0.0000         0.0000        11.2150
    750.00        12.0036         0.0389         0.0000         0.0389        12.0504         0.0000         0.0000         0.0000        11.0660
    760.00        11.8462         0.0384         0.0000         0.0384        11.8923         0.0000         0.0000         0.0000        10.9209
    770.00        11.6928         0.0379         0.0000         0.0379        11.7383         0.0000         0.0000         0.0000        10.7795
    780.00        11.5433         0.0374         0.0000         0.0374        11.5883         0.0000         0.0000         0.0000        10.6417
    790.00        11.3976         0.0370         0.0000         0.0370        11.4420         0.0000         0.0000         0.0000        10.5074
    800.00        11.2555         0.0365         0.0000         0.0365        11.2994         0.0000         0.0000         0.0000        10.3764
    810.00        11.1169         0.0360         0.0000         0.0360        11.1603         0.0000         0.0000         0.0000        10.2487
    820.00        10.9817         0.0356         0.0000         0.0356        11.0245         0.0000         0.0000         0.0000        10.1240
    830.00        10.8497         0.0352         0.0000         0.0352        10.8920         0.0000         0.0000         0.0000        10.0024
    840.00        10.7209         0.0348         0.0000         0.0348        10.7627         0.0000         0.0000         0.0000         9.8836
    850.00        10.5951         0.0343         0.0000         0.0343        10.6364         0.0000         0.0000         0.0000         9.7676
    860.00        10.4722         0.0340         0.0000         0.0340        10.5130         0.0000         0.0000         0.0000         9.6543
    870.00        10.3521         0.0336         0.0000         0.0336        10.3924         0.0000         0.0000         0.0000         9.5436
    880.00        10.2347         0.0332         0.0000         0.0332        10.2746         0.0000         0.0000         0.0000         9.4355
    890.00        10.1200         0.0328         0.0000         0.0328        10.1594         0.0000         0.0000         0.0000         9.3297
    900.00        10.0078         0.0324         0.0000         0.0324        10.0468         0.0000         0.0000         0.0000         9.2263
    910.00         9.8980         0.0321         0.0000         0.0321         9.9366         0.0000         0.0000         0.0000         9.1251
    920.00         9.7907         0.0317         0.0000         0.0317         9.8288         0.0000         0.0000         0.0000         9.0261
    930.00         9.6856         0.0314         0.0000         0.0314         9.7234         0.0000         0.0000         0.0000         8.9293
    940.00         9.5828         0.0311         0.0000         0.0311         9.6201         0.0000         0.0000         0.0000         8.8345
    950.00         9.4821         0.0307         0.0000         0.0307         9.5191         0.0000         0.0000         0.0000         8.7417
    960.00         9.3835         0.0304         0.0000         0.0304         9.4201         0.0000         0.0000         0.0000         8.6508
    970.00         9.2870         0.0301         0.0000         0.0301         9.3232         0.0000         0.0000         0.0000         8.5618
    980.00         9.1924         0.0298         0.0000         0.0298         9.2282         0.0000         0.0000         0.0000         8.4746
    990.00         9.0997         0.0295         0.0000         0.0295         9.1352         0.0000         0.0000         0.0000         8.3892
   1000.00         9.0089         0.0292         0.0000         0.0292         9.0440         0.0000         0.0000         0.0000         8.3054
