# k-axis, Phonon energy [meV], band-1, band-2, band-3, band-4, band-5, band-6, band-7
     1     0.000000    0.000000     0.000000     0.000000 
     2     0.017152    0.319841     0.319841     0.982038 
     3     0.034304    0.639342     0.639342     1.960869 
     4     0.051456    0.958163     0.958163     2.933300 
     5     0.068608    1.275965     1.275965     3.896169 
     6     0.085760    1.592412     1.592412     4.846356 
     7     0.102911    1.907168     1.907168     5.780798 
     8     0.120063    2.219903     2.219903     6.696504 
     9     0.137215    2.530287     2.530287     7.590571 
    10     0.154367    2.837994     2.837994     8.460193 
    11     0.171519    3.142703     3.142703     9.302678 
    12     0.188671    3.444100     3.444100    10.115459 
    13     0.205823    3.741873     3.741873    10.896108 
    14     0.222975    4.035716     4.035716    11.642349 
    15     0.240127    4.325330     4.325330    12.352070 
    16     0.257279    4.610422     4.610422    13.023330 
    17     0.274430    4.890705     4.890705    13.654389 
    18     0.291582    5.165899     5.165899    14.243678 
    19     0.308734    5.435734     5.435734    14.789847 
    20     0.325886    5.699946     5.699946    15.291780 
    21     0.343038    5.958275     5.958275    15.748584 
    22     0.360190    6.210477     6.210477    16.159566 
    23     0.377342    6.456308     6.456308    16.524327 
    24     0.394494    6.695539     6.695539    16.842695 
    25     0.411646    6.927945     6.927945    17.114782 
    26     0.428798    7.153314     7.153314    17.340934 
    27     0.445949    7.371438     7.371438    17.521821 
    28     0.463101    7.582122     7.582122    17.658347 
    29     0.480253    7.785178     7.785178    17.751766 
    30     0.497405    7.980426     7.980426    17.803578 
    31     0.514557    8.167696     8.167696    17.815616 
    32     0.531709    8.346827     8.346827    17.790027 
    33     0.548861    8.517668     8.517668    17.729252 
    34     0.566013    8.680073     8.680073    17.636056 
    35     0.583165    8.833907     8.833907    17.513514 
    36     0.600317    8.979044     8.979044    17.365048 
    37     0.617468    9.115367     9.115367    17.194340 
    38     0.634620    9.242765     9.242765    17.005382 
    39     0.651772    9.361137     9.361137    16.802476 
    40     0.668924    9.470388     9.470388    16.590123 
    41     0.686076    9.570435     9.570435    16.373047 
    42     0.703228    9.661200     9.661200    16.156144 
    43     0.720380    9.742612     9.742612    15.944361 
    44     0.737532    9.814610     9.814610    15.742670 
    45     0.754684    9.877139     9.877139    15.555907 
    46     0.771836    9.930152     9.930152    15.388683 
    47     0.788987    9.973610     9.973610    15.245250 
    48     0.806139   10.007480    10.007480    15.129354 
    49     0.823291   10.031735    10.031735    15.044056 
    50     0.840443   10.046361    10.046361    14.991686 
    51     0.857595   10.051344    10.051344    14.973685 
    52     0.857595   10.051343    10.051355    14.973672 
    53     0.881851   10.041505    10.085524    14.967014 
    54     0.906108   10.012614    10.184531    14.947388 
    55     0.930364    9.964648    10.344680    14.914645 
    56     0.954621    9.897615    10.560294    14.868549 
    57     0.978877    9.811616    10.824255    14.808779 
    58     1.003134    9.706929    11.128607    14.734949 
    59     1.027390    9.584103    11.465116    14.646625 
    60     1.051647    9.444074    11.825703    14.543387 
    61     1.075903    9.288270    12.202775    14.424788 
    62     1.100160    9.118724    12.589413    14.290456 
    63     1.124416    8.938165    12.979454    14.140031 
    64     1.148672    8.750087    13.367548    13.973265 
    65     1.172929    8.558783    13.749072    13.789998 
    66     1.197185    8.369321    13.590179    14.120070 
    67     1.221442    8.187432    13.373896    14.477132 
    68     1.245698    8.019320    13.141372    14.817333 
    69     1.269955    7.871345    12.892928    15.138045 
    70     1.294211    7.749591    12.629037    15.436849 
    71     1.318468    7.659348    12.350309    15.711427 
    72     1.342724    7.604558    12.057432    15.959462 
    73     1.366980    7.587302    11.751200    16.178547 
    74     1.391237    7.607441    11.432477    16.366178 
    75     1.415493    7.662475    11.102176    16.519604 
    76     1.439750    7.747643    10.761237    16.635922 
    77     1.464006    7.856264    10.410602    16.712020 
    78     1.488263    7.980202    10.051194    16.744640 
    79     1.512519    8.110397     9.683889    16.730382 
    80     1.536776    8.237379     9.309504    16.665813 
    81     1.561032    8.351698     8.928778    16.547499 
    82     1.585289    8.444285     8.542353    16.372154 
    83     1.609545    8.150779     8.506698    16.136654 
    84     1.633801    7.754496     8.531320    15.838185 
    85     1.658058    7.353854     8.511479    15.474353 
    86     1.682314    6.949103     8.441528    15.043188 
    87     1.706571    6.540411     8.316903    14.543313 
    88     1.730827    6.127884     8.134143    13.973959 
    89     1.755084    5.711575     7.890896    13.335041 
    90     1.779340    5.291510     7.585920    12.627214 
    91     1.803597    4.867702     7.219058    11.851867 
    92     1.827853    4.440176     6.791210    11.011185 
    93     1.852109    4.008986     6.304296    10.108114 
    94     1.876366    3.574231     5.761194     9.146363 
    95     1.900622    3.136063     5.165690     8.130364 
    96     1.924879    2.694699     4.522396     7.065243 
    97     1.949135    2.250427     3.836678     5.956753 
    98     1.973392    1.803604     3.114556     4.811209 
    99     1.997648    1.354650     2.362620     3.635416 
   100     2.021905    0.904043     1.587914     2.436576 
   101     2.046161    0.452308     0.797831     1.222199 
   102     2.070418    0.000000     0.000000     0.000000 
   103     2.070418    0.000000     0.000000     0.000000 
   104     2.085271    0.430177     0.430177     0.711822 
   105     2.100125    0.859090     0.859090     1.421831 
   106     2.114979    1.285478     1.285478     2.128226 
   107     2.129833    1.708095     1.708095     2.829220 
   108     2.144687    2.125711     2.125711     3.523053 
   109     2.159541    2.537122     2.537122     4.208000 
   110     2.174395    2.941150     2.941150     4.882381 
   111     2.189249    3.336655     3.336655     5.544563 
   112     2.204103    3.722538     3.722538     6.192977 
   113     2.218957    4.097744     4.097744     6.826121 
   114     2.233811    4.461270     4.461270     7.442564 
   115     2.248665    4.812173     4.812173     8.040962 
   116     2.263519    5.149569     5.149569     8.620058 
   117     2.278373    5.472641     5.472641     9.178693 
   118     2.293227    5.780643     5.780644     9.715810 
   119     2.308081    6.072909     6.072909    10.230460 
   120     2.322935    6.348847     6.348847    10.721809 
   121     2.337789    6.607953     6.607954    11.189140 
   122     2.352643    6.849811     6.849812    11.631863 
   123     2.367497    7.074094     7.074095    12.049515 
   124     2.382351    7.280574     7.280574    12.441765 
   125     2.397205    7.469116     7.469116    12.808411 
   126     2.412059    7.639686     7.639686    13.149381 
   127     2.426913    7.792356     7.792357    13.464774 
   128     2.441767    7.927302     7.927302    13.754775 
   129     2.456621    8.044802     8.044802    14.019758 
   130     2.471475    8.145244     8.145245    14.260192 
   131     2.486329    8.229127     8.229127    14.476711 
   132     2.501183    8.297049     8.297050    14.670045 
   133     2.516037    8.349724     8.349724    14.841100 
   134     2.530891    8.387966     8.387966    14.990856 
   135     2.545745    8.412691     8.412693    15.120415 
   136     2.560599    8.424920     8.424920    15.230993 
   137     2.575453    8.425759     8.425759    15.323916 
   138     2.590307    8.416407     8.416408    15.400548 
   139     2.605161    8.398144     8.398144    15.462339 
   140     2.620015    8.372312     8.372312    15.510815 
   141     2.634869    8.340314     8.340314    15.547501 
   142     2.649723    8.303593     8.303593    15.573958 
   143     2.664577    8.263612     8.263613    15.591725 
   144     2.679431    8.221842     8.221843    15.602325 
   145     2.694285    8.179731     8.179731    15.607247 
   146     2.709139    8.138679     8.138679    15.607867 
   147     2.723993    8.100020     8.100020    15.605511 
   148     2.738847    8.064983     8.064983    15.601346 
   149     2.753701    8.034670     8.034670    15.596436 
   150     2.768555    8.010027     8.010028    15.591638 
   151     2.783409    7.991820     7.991821    15.587695 
   152     2.798263    7.980615     7.980616    15.585104 
   153     2.813117    7.976758     7.976758    15.584174 
