# Temperature [K], Thermal Conductivity (xx, xy, xz, yx, yy, yz, zx, zy, zz) [W/mK]
      0.00         0.0000         0.0000         0.0000         0.0000         0.0000         0.0000         0.0000         0.0000         0.0000
     10.00      1342.1387         0.0015         0.0015         0.0015      1342.1387         0.0015         0.0015         0.0015      1342.1387
     20.00        86.4854        -0.0004        -0.0004        -0.0004        86.4854        -0.0004        -0.0004        -0.0004        86.4854
     30.00        34.0972        -0.0012        -0.0012        -0.0012        34.0972        -0.0012        -0.0012        -0.0012        34.0972
     40.00        23.7468        -0.0017        -0.0017        -0.0017        23.7468        -0.0017        -0.0017        -0.0017        23.7468
     50.00        19.3566        -0.0019        -0.0019        -0.0019        19.3566        -0.0019        -0.0019        -0.0019        19.3566
     60.00        16.6327        -0.0020        -0.0020        -0.0020        16.6327        -0.0020        -0.0020        -0.0020        16.6327
     70.00        14.6442        -0.0019        -0.0019        -0.0019        14.6442        -0.0019        -0.0019        -0.0019        14.6442
     80.00        13.0874        -0.0019        -0.0019        -0.0019        13.0874        -0.0019        -0.0019        -0.0019        13.0874
     90.00        11.8243        -0.0018        -0.0018        -0.0018        11.8243        -0.0018        -0.0018        -0.0018        11.8243
    100.00        10.7768        -0.0017        -0.0017        -0.0017        10.7768        -0.0017        -0.0017        -0.0017        10.7768
    110.00         9.8939        -0.0016        -0.0016        -0.0016         9.8939        -0.0016        -0.0016        -0.0016         9.8939
    120.00         9.1403        -0.0015        -0.0015        -0.0015         9.1403        -0.0015        -0.0015        -0.0015         9.1403
    130.00         8.4901        -0.0014        -0.0014        -0.0014         8.4901        -0.0014        -0.0014        -0.0014         8.4901
    140.00         7.9237        -0.0013        -0.0013        -0.0013         7.9237        -0.0013        -0.0013        -0.0013         7.9237
    150.00         7.4263        -0.0012        -0.0012        -0.0012         7.4263        -0.0012        -0.0012        -0.0012         7.4263
    160.00         6.9863        -0.0012        -0.0012        -0.0012         6.9863        -0.0012        -0.0012        -0.0012         6.9863
    170.00         6.5945        -0.0011        -0.0011        -0.0011         6.5945        -0.0011        -0.0011        -0.0011         6.5945
    180.00         6.2435        -0.0011        -0.0011        -0.0011         6.2435        -0.0011        -0.0011        -0.0011         6.2435
    190.00         5.9273        -0.0010        -0.0010        -0.0010         5.9273        -0.0010        -0.0010        -0.0010         5.9273
    200.00         5.6411        -0.0010        -0.0010        -0.0010         5.6411        -0.0010        -0.0010        -0.0010         5.6411
    210.00         5.3809        -0.0009        -0.0009        -0.0009         5.3809        -0.0009        -0.0009        -0.0009         5.3809
    220.00         5.1433        -0.0009        -0.0009        -0.0009         5.1433        -0.0009        -0.0009        -0.0009         5.1433
    230.00         4.9255        -0.0008        -0.0008        -0.0008         4.9255        -0.0008        -0.0008        -0.0008         4.9255
    240.00         4.7252        -0.0008        -0.0008        -0.0008         4.7252        -0.0008        -0.0008        -0.0008         4.7252
    250.00         4.5405        -0.0008        -0.0008        -0.0008         4.5405        -0.0008        -0.0008        -0.0008         4.5405
    260.00         4.3694        -0.0008        -0.0008        -0.0008         4.3694        -0.0008        -0.0008        -0.0008         4.3694
    270.00         4.2107        -0.0007        -0.0007        -0.0007         4.2107        -0.0007        -0.0007        -0.0007         4.2107
    280.00         4.0630        -0.0007        -0.0007        -0.0007         4.0630        -0.0007        -0.0007        -0.0007         4.0630
    290.00         3.9253        -0.0007        -0.0007        -0.0007         3.9253        -0.0007        -0.0007        -0.0007         3.9253
    300.00         3.7965        -0.0007        -0.0007        -0.0007         3.7965        -0.0007        -0.0007        -0.0007         3.7965
    310.00         3.6758        -0.0006        -0.0006        -0.0006         3.6758        -0.0006        -0.0006        -0.0006         3.6758
    320.00         3.5625        -0.0006        -0.0006        -0.0006         3.5625        -0.0006        -0.0006        -0.0006         3.5625
    330.00         3.4560        -0.0006        -0.0006        -0.0006         3.4560        -0.0006        -0.0006        -0.0006         3.4560
    340.00         3.3556        -0.0006        -0.0006        -0.0006         3.3556        -0.0006        -0.0006        -0.0006         3.3556
    350.00         3.2608        -0.0006        -0.0006        -0.0006         3.2608        -0.0006        -0.0006        -0.0006         3.2608
    360.00         3.1712        -0.0006        -0.0006        -0.0006         3.1712        -0.0006        -0.0006        -0.0006         3.1712
    370.00         3.0864        -0.0005        -0.0005        -0.0005         3.0864        -0.0005        -0.0005        -0.0005         3.0864
    380.00         3.0060        -0.0005        -0.0005        -0.0005         3.0060        -0.0005        -0.0005        -0.0005         3.0060
    390.00         2.9296        -0.0005        -0.0005        -0.0005         2.9296        -0.0005        -0.0005        -0.0005         2.9296
    400.00         2.8570        -0.0005        -0.0005        -0.0005         2.8570        -0.0005        -0.0005        -0.0005         2.8570
    410.00         2.7879        -0.0005        -0.0005        -0.0005         2.7879        -0.0005        -0.0005        -0.0005         2.7879
    420.00         2.7221        -0.0005        -0.0005        -0.0005         2.7221        -0.0005        -0.0005        -0.0005         2.7221
    430.00         2.6593        -0.0005        -0.0005        -0.0005         2.6593        -0.0005        -0.0005        -0.0005         2.6593
    440.00         2.5993        -0.0005        -0.0005        -0.0005         2.5993        -0.0005        -0.0005        -0.0005         2.5993
    450.00         2.5419        -0.0004        -0.0004        -0.0004         2.5419        -0.0004        -0.0004        -0.0004         2.5419
    460.00         2.4870        -0.0004        -0.0004        -0.0004         2.4870        -0.0004        -0.0004        -0.0004         2.4870
    470.00         2.4344        -0.0004        -0.0004        -0.0004         2.4344        -0.0004        -0.0004        -0.0004         2.4344
    480.00         2.3840        -0.0004        -0.0004        -0.0004         2.3840        -0.0004        -0.0004        -0.0004         2.3840
    490.00         2.3357        -0.0004        -0.0004        -0.0004         2.3357        -0.0004        -0.0004        -0.0004         2.3357
    500.00         2.2892        -0.0004        -0.0004        -0.0004         2.2892        -0.0004        -0.0004        -0.0004         2.2892
    510.00         2.2446        -0.0004        -0.0004        -0.0004         2.2446        -0.0004        -0.0004        -0.0004         2.2446
    520.00         2.2016        -0.0004        -0.0004        -0.0004         2.2016        -0.0004        -0.0004        -0.0004         2.2016
    530.00         2.1603        -0.0004        -0.0004        -0.0004         2.1603        -0.0004        -0.0004        -0.0004         2.1603
    540.00         2.1205        -0.0004        -0.0004        -0.0004         2.1205        -0.0004        -0.0004        -0.0004         2.1205
    550.00         2.0821        -0.0004        -0.0004        -0.0004         2.0821        -0.0004        -0.0004        -0.0004         2.0821
    560.00         2.0451        -0.0004        -0.0004        -0.0004         2.0451        -0.0004        -0.0004        -0.0004         2.0451
    570.00         2.0094        -0.0004        -0.0004        -0.0004         2.0094        -0.0004        -0.0004        -0.0004         2.0094
    580.00         1.9749        -0.0003        -0.0003        -0.0003         1.9749        -0.0003        -0.0003        -0.0003         1.9749
    590.00         1.9416        -0.0003        -0.0003        -0.0003         1.9416        -0.0003        -0.0003        -0.0003         1.9416
    600.00         1.9093        -0.0003        -0.0003        -0.0003         1.9093        -0.0003        -0.0003        -0.0003         1.9093
    610.00         1.8782        -0.0003        -0.0003        -0.0003         1.8782        -0.0003        -0.0003        -0.0003         1.8782
    620.00         1.8480        -0.0003        -0.0003        -0.0003         1.8480        -0.0003        -0.0003        -0.0003         1.8480
    630.00         1.8187        -0.0003        -0.0003        -0.0003         1.8187        -0.0003        -0.0003        -0.0003         1.8187
    640.00         1.7904        -0.0003        -0.0003        -0.0003         1.7904        -0.0003        -0.0003        -0.0003         1.7904
    650.00         1.7630        -0.0003        -0.0003        -0.0003         1.7630        -0.0003        -0.0003        -0.0003         1.7630
    660.00         1.7364        -0.0003        -0.0003        -0.0003         1.7364        -0.0003        -0.0003        -0.0003         1.7364
    670.00         1.7105        -0.0003        -0.0003        -0.0003         1.7105        -0.0003        -0.0003        -0.0003         1.7105
    680.00         1.6854        -0.0003        -0.0003        -0.0003         1.6854        -0.0003        -0.0003        -0.0003         1.6854
    690.00         1.6611        -0.0003        -0.0003        -0.0003         1.6611        -0.0003        -0.0003        -0.0003         1.6611
    700.00         1.6374        -0.0003        -0.0003        -0.0003         1.6374        -0.0003        -0.0003        -0.0003         1.6374
    710.00         1.6144        -0.0003        -0.0003        -0.0003         1.6144        -0.0003        -0.0003        -0.0003         1.6144
    720.00         1.5921        -0.0003        -0.0003        -0.0003         1.5921        -0.0003        -0.0003        -0.0003         1.5921
    730.00         1.5703        -0.0003        -0.0003        -0.0003         1.5703        -0.0003        -0.0003        -0.0003         1.5703
    740.00         1.5492        -0.0003        -0.0003        -0.0003         1.5492        -0.0003        -0.0003        -0.0003         1.5492
    750.00         1.5285        -0.0003        -0.0003        -0.0003         1.5285        -0.0003        -0.0003        -0.0003         1.5285
    760.00         1.5085        -0.0003        -0.0003        -0.0003         1.5085        -0.0003        -0.0003        -0.0003         1.5085
    770.00         1.4889        -0.0003        -0.0003        -0.0003         1.4889        -0.0003        -0.0003        -0.0003         1.4889
    780.00         1.4699        -0.0003        -0.0003        -0.0003         1.4699        -0.0003        -0.0003        -0.0003         1.4699
    790.00         1.4513        -0.0003        -0.0003        -0.0003         1.4513        -0.0003        -0.0003        -0.0003         1.4513
    800.00         1.4332        -0.0003        -0.0003        -0.0003         1.4332        -0.0003        -0.0003        -0.0003         1.4332
    810.00         1.4156        -0.0002        -0.0002        -0.0002         1.4156        -0.0002        -0.0002        -0.0002         1.4156
    820.00         1.3984        -0.0002        -0.0002        -0.0002         1.3984        -0.0002        -0.0002        -0.0002         1.3984
    830.00         1.3815        -0.0002        -0.0002        -0.0002         1.3815        -0.0002        -0.0002        -0.0002         1.3815
    840.00         1.3651        -0.0002        -0.0002        -0.0002         1.3651        -0.0002        -0.0002        -0.0002         1.3651
    850.00         1.3491        -0.0002        -0.0002        -0.0002         1.3491        -0.0002        -0.0002        -0.0002         1.3491
    860.00         1.3334        -0.0002        -0.0002        -0.0002         1.3334        -0.0002        -0.0002        -0.0002         1.3334
    870.00         1.3181        -0.0002        -0.0002        -0.0002         1.3181        -0.0002        -0.0002        -0.0002         1.3181
    880.00         1.3032        -0.0002        -0.0002        -0.0002         1.3032        -0.0002        -0.0002        -0.0002         1.3032
    890.00         1.2886        -0.0002        -0.0002        -0.0002         1.2886        -0.0002        -0.0002        -0.0002         1.2886
    900.00         1.2743        -0.0002        -0.0002        -0.0002         1.2743        -0.0002        -0.0002        -0.0002         1.2743
    910.00         1.2603        -0.0002        -0.0002        -0.0002         1.2603        -0.0002        -0.0002        -0.0002         1.2603
    920.00         1.2466        -0.0002        -0.0002        -0.0002         1.2466        -0.0002        -0.0002        -0.0002         1.2466
    930.00         1.2332        -0.0002        -0.0002        -0.0002         1.2332        -0.0002        -0.0002        -0.0002         1.2332
    940.00         1.2201        -0.0002        -0.0002        -0.0002         1.2201        -0.0002        -0.0002        -0.0002         1.2201
    950.00         1.2073        -0.0002        -0.0002        -0.0002         1.2073        -0.0002        -0.0002        -0.0002         1.2073
    960.00         1.1948        -0.0002        -0.0002        -0.0002         1.1948        -0.0002        -0.0002        -0.0002         1.1948
    970.00         1.1825        -0.0002        -0.0002        -0.0002         1.1825        -0.0002        -0.0002        -0.0002         1.1825
    980.00         1.1704        -0.0002        -0.0002        -0.0002         1.1704        -0.0002        -0.0002        -0.0002         1.1704
    990.00         1.1586        -0.0002        -0.0002        -0.0002         1.1586        -0.0002        -0.0002        -0.0002         1.1586
   1000.00         1.1470        -0.0002        -0.0002        -0.0002         1.1470        -0.0002        -0.0002        -0.0002         1.1470
