# k-axis, Phonon energy [meV], band-1, band-2, band-3, band-4, band-5, band-6, band-7
     1     0.000000    0.000000     0.000000     0.000000 
     2     0.016716    0.261585     0.261585     0.735805 
     3     0.033432    0.523198     0.523198     1.469713 
     4     0.050148    0.784863     0.784863     2.199838 
     5     0.066864    1.046600     1.046600     2.924311 
     6     0.083581    1.308419     1.308419     3.641290 
     7     0.100297    1.570317     1.570317     4.348970 
     8     0.117013    1.832277     1.832277     5.045593 
     9     0.133729    2.094265     2.094265     5.729449 
    10     0.150445    2.356230     2.356230     6.398897 
    11     0.167161    2.618098     2.618098     7.052363 
    12     0.183877    2.879771     2.879771     7.688352 
    13     0.200593    3.141132     3.141132     8.305456 
    14     0.217309    3.402034     3.402034     8.902362 
    15     0.234025    3.662305     3.662305     9.477853 
    16     0.250742    3.921751     3.921751    10.030826 
    17     0.267458    4.180149     4.180149    10.560289 
    18     0.284174    4.437252     4.437252    11.065366 
    19     0.300890    4.692784     4.692784    11.545314 
    20     0.317606    4.946452     4.946452    11.999512 
    21     0.334322    5.197933     5.197933    12.427482 
    22     0.351038    5.446888     5.446888    12.828868 
    23     0.367754    5.692952     5.692952    13.203473 
    24     0.384470    5.935747     5.935747    13.551250 
    25     0.401187    6.174876     6.174876    13.872246 
    26     0.417903    6.409928     6.409928    14.166723 
    27     0.434619    6.640482     6.640482    14.435041 
    28     0.451335    6.866104     6.866104    14.677732 
    29     0.468051    7.086355     7.086355    14.895441 
    30     0.484767    7.300790     7.300790    15.088974 
    31     0.501483    7.508963     7.508963    15.259260 
    32     0.518199    7.710428     7.710428    15.407354 
    33     0.534915    7.904740     7.904740    15.534458 
    34     0.551631    8.091460     8.091460    15.641850 
    35     0.568348    8.270160     8.270160    15.730930 
    36     0.585064    8.440417     8.440417    15.803173 
    37     0.601780    8.601823     8.601823    15.860129 
    38     0.618496    8.753984     8.753984    15.903423 
    39     0.635212    8.896523     8.896523    15.934678 
    40     0.651928    9.029084     9.029084    15.955581 
    41     0.668644    9.151330     9.151330    15.967793 
    42     0.685360    9.262945     9.262945    15.972939 
    43     0.702076    9.363642     9.363642    15.972616 
    44     0.718793    9.453155     9.453155    15.968314 
    45     0.735509    9.531251     9.531251    15.961458 
    46     0.752225    9.597722     9.597722    15.953300 
    47     0.768941    9.652389     9.652389    15.945006 
    48     0.785657    9.695107     9.695107    15.937505 
    49     0.802373    9.725761     9.725761    15.931566 
    50     0.819089    9.744268     9.744268    15.927760 
    51     0.835805    9.750578     9.750578    15.926421 
    52     0.835805    9.750572     9.750584    15.926421 
    53     0.859445    9.724179     9.766760    15.911494 
    54     0.883086    9.647100     9.814234    15.867741 
    55     0.906726    9.520510     9.892942    15.795350 
    56     0.930366    9.346362    10.002716    15.694678 
    57     0.954006    9.127385    10.143203    15.566160 
    58     0.977646    8.867079    10.313760    15.410404 
    59     1.001286    8.569727    10.513355    15.228153 
    60     1.024926    8.240395    10.740482    15.020264 
    61     1.048567    7.884952    10.993083    14.787776 
    62     1.072207    7.510081    11.268526    14.531820 
    63     1.095847    7.123307    11.563587    14.253708 
    64     1.119487    6.733002    11.874486    13.954854 
    65     1.143127    6.348371    12.196937    13.636845 
    66     1.166767    5.979367    12.526220    13.301343 
    67     1.190407    5.636474    12.857296    12.950145 
    68     1.214048    5.330273    12.585135    13.184851 
    69     1.237688    5.070713    12.208276    13.503430 
    70     1.261328    4.866055    11.821572    13.807566 
    71     1.284968    4.721643    11.427063    14.091802 
    72     1.308608    4.638811    11.026780    14.350809 
    73     1.332248    4.614372    10.622713    14.579478 
    74     1.355888    4.640982    10.216783    14.772973 
    75     1.379529    4.708253     9.810797    14.926795 
    76     1.403169    4.804239     9.406413    15.036803 
    77     1.426809    4.916793     9.005110    15.099313 
    78     1.450449    5.034556     8.608141    15.111092 
    79     1.474089    5.147514     8.216515    15.069360 
    80     1.497729    5.247201     7.830970    14.971874 
    81     1.521369    5.326709     7.451956    14.816887 
    82     1.545010    5.380572     7.079631    14.603170 
    83     1.568650    5.404613     6.713872    14.330005 
    84     1.592290    5.395781     6.354284    13.997168 
    85     1.615930    5.352006     6.000233    13.604958 
    86     1.639570    5.272062     5.650887    13.154092 
    87     1.663210    5.155454     5.305259    12.645799 
    88     1.686850    4.962264     5.002312    12.081695 
    89     1.710491    4.620772     4.813305    11.463802 
    90     1.734131    4.279669     4.589570    10.794518 
    91     1.757771    3.937911     4.332636    10.076581 
    92     1.781411    3.594565     4.044370     9.313035 
    93     1.805051    3.248851     3.726919     8.507204 
    94     1.828691    2.900180     3.382673     7.662658 
    95     1.852331    2.548161     3.014208     6.783186 
    96     1.875972    2.192617     2.624267     5.872764 
    97     1.899612    1.833585     2.215716     4.935528 
    98     1.923252    1.471298     1.791523     3.975751 
    99     1.946892    1.106171     1.354733     2.997814 
   100     1.970532    0.738774     0.908450     2.006182 
   101     1.994172    0.369793     0.455816     1.005387 
   102     2.017812    0.000000     0.000000     0.000000 
   103     2.017812    0.000000     0.000000     0.000000 
   104     2.032289    0.262915     0.262915     0.608672 
   105     2.046766    0.525318     0.525318     1.216247 
   106     2.061242    0.786699     0.786699     1.821634 
   107     2.075719    1.046554     1.046554     2.423753 
   108     2.090195    1.304385     1.304385     3.021536 
   109     2.104672    1.559703     1.559703     3.613933 
   110     2.119148    1.812032     1.812032     4.199919 
   111     2.133625    2.060907     2.060907     4.778500 
   112     2.148102    2.305882     2.305882     5.348708 
   113     2.162578    2.546524     2.546524     5.909617 
   114     2.177055    2.782427     2.782427     6.460337 
   115     2.191531    3.013199     3.013199     7.000026 
   116     2.206008    3.238475     3.238475     7.527887 
   117     2.220484    3.457916     3.457916     8.043173 
   118     2.234961    3.671208     3.671208     8.545191 
   119     2.249438    3.878062     3.878062     9.033306 
   120     2.263914    4.078222     4.078222     9.506939 
   121     2.278391    4.271459     4.271459     9.965572 
   122     2.292867    4.457577     4.457577    10.408747 
   123     2.307344    4.636408     4.636408    10.836074 
   124     2.321820    4.807819     4.807819    11.247219 
   125     2.336297    4.971707     4.971707    11.641918 
   126     2.350774    5.128000     5.128000    12.019966 
   127     2.365250    5.276659     5.276659    12.381224 
   128     2.379727    5.417678     5.417678    12.725617 
   129     2.394203    5.551077     5.551077    13.053123 
   130     2.408680    5.676908     5.676908    13.363779 
   131     2.423156    5.795252     5.795252    13.657686 
   132     2.437633    5.906215     5.906215    13.934992 
   133     2.452110    6.009931     6.009931    14.195884 
   134     2.466586    6.106553     6.106553    14.440620 
   135     2.481063    6.196259     6.196259    14.669487 
   136     2.495539    6.279244     6.279244    14.882782 
   137     2.510016    6.355718     6.355718    15.080878 
   138     2.524492    6.425906     6.425906    15.264145 
   139     2.538969    6.490042     6.490042    15.432968 
   140     2.553446    6.548366     6.548366    15.587782 
   141     2.567922    6.601123     6.601124    15.728971 
   142     2.582399    6.648559     6.648559    15.856992 
   143     2.596875    6.690914     6.690914    15.972232 
   144     2.611352    6.728423     6.728423    16.075098 
   145     2.625828    6.761311     6.761313    16.165988 
   146     2.640305    6.789791     6.789791    16.245273 
   147     2.654782    6.814056     6.814056    16.313264 
   148     2.669258    6.834281     6.834282    16.370282 
   149     2.683735    6.850622     6.850622    16.416589 
   150     2.698211    6.863205     6.863205    16.452406 
   151     2.712688    6.872136     6.872136    16.477909 
   152     2.727164    6.877487     6.877488    16.493221 
   153     2.741641    6.879306     6.879306    16.498428 
