# Temperature [K], Thermal Conductivity (xx, xy, xz, yx, yy, yz, zx, zy, zz) [W/mK]
      0.00         0.0000         0.0000         0.0000         0.0000         0.0000         0.0000         0.0000         0.0000         0.0000
     10.00      1599.0770         0.0024        -0.0000         0.0024      1599.0673        -0.0000        -0.0000        -0.0000      1098.1145
     20.00       296.8142         0.0262        -0.0000         0.0262       296.8432        -0.0000        -0.0000        -0.0000       197.2748
     30.00       121.1606         0.0475        -0.0000         0.0475       121.2165        -0.0000        -0.0000        -0.0000        78.4231
     40.00        77.7384         0.0551        -0.0000         0.0551        77.8038        -0.0000        -0.0000        -0.0000        50.7494
     50.00        59.7690         0.0551        -0.0000         0.0551        59.8346        -0.0000        -0.0000        -0.0000        40.0412
     60.00        49.5959         0.0521        -0.0000         0.0521        49.6581        -0.0000        -0.0000        -0.0000        34.0334
     70.00        42.7560         0.0483        -0.0000         0.0483        42.8137        -0.0000        -0.0000        -0.0000        29.8881
     80.00        37.7052         0.0445        -0.0000         0.0445        37.7584        -0.0000        -0.0000        -0.0000        26.7221
     90.00        33.7671         0.0411        -0.0000         0.0411        33.8161        -0.0000        -0.0000        -0.0000        24.1769
    100.00        30.5882         0.0379        -0.0000         0.0379        30.6336        -0.0000        -0.0000        -0.0000        22.0704
    110.00        27.9596         0.0352        -0.0000         0.0352        28.0016        -0.0000        -0.0000        -0.0000        20.2934
    120.00        25.7462         0.0327        -0.0000         0.0327        25.7854        -0.0000        -0.0000        -0.0000        18.7735
    130.00        23.8556         0.0306        -0.0000         0.0306        23.8921        -0.0000        -0.0000        -0.0000        17.4587
    140.00        22.2215         0.0286        -0.0000         0.0286        22.2557        -0.0000        -0.0000        -0.0000        16.3109
    150.00        20.7949         0.0269        -0.0000         0.0269        20.8271        -0.0000        -0.0000        -0.0000        15.3006
    160.00        19.5387         0.0254        -0.0000         0.0254        19.5691        -0.0000        -0.0000        -0.0000        14.4050
    170.00        18.4243         0.0240        -0.0000         0.0240        18.4530        -0.0000        -0.0000        -0.0000        13.6060
    180.00        17.4289         0.0228        -0.0000         0.0228        17.4562        -0.0000        -0.0000        -0.0000        12.8890
    190.00        16.5347         0.0217        -0.0000         0.0217        16.5606        -0.0000        -0.0000        -0.0000        12.2423
    200.00        15.7270         0.0207        -0.0000         0.0207        15.7517        -0.0000        -0.0000        -0.0000        11.6562
    210.00        14.9939         0.0197        -0.0000         0.0197        15.0174        -0.0000        -0.0000        -0.0000        11.1227
    220.00        14.3255         0.0189        -0.0000         0.0189        14.3481        -0.0000        -0.0000        -0.0000        10.6351
    230.00        13.7138         0.0181        -0.0000         0.0181        13.7355        -0.0000        -0.0000        -0.0000        10.1878
    240.00        13.1519         0.0174        -0.0000         0.0174        13.1727        -0.0000        -0.0000        -0.0000         9.7761
    250.00        12.6339         0.0167        -0.0000         0.0167        12.6539        -0.0000        -0.0000        -0.0000         9.3960
    260.00        12.1549         0.0161        -0.0000         0.0161        12.1741        -0.0000        -0.0000        -0.0000         9.0440
    270.00        11.7107         0.0155        -0.0000         0.0155        11.7292        -0.0000        -0.0000        -0.0000         8.7171
    280.00        11.2977         0.0150        -0.0000         0.0150        11.3156        -0.0000        -0.0000        -0.0000         8.4128
    290.00        10.9126         0.0145        -0.0000         0.0145        10.9299        -0.0000        -0.0000        -0.0000         8.1288
    300.00        10.5528         0.0140        -0.0000         0.0140        10.5696        -0.0000        -0.0000        -0.0000         7.8631
    310.00        10.2159         0.0136        -0.0000         0.0136        10.2321        -0.0000        -0.0000        -0.0000         7.6141
    320.00         9.8997         0.0131        -0.0000         0.0131         9.9154        -0.0000        -0.0000        -0.0000         7.3803
    330.00         9.6024         0.0127        -0.0000         0.0127         9.6177        -0.0000        -0.0000        -0.0000         7.1603
    340.00         9.3224         0.0124        -0.0000         0.0124         9.3372        -0.0000        -0.0000        -0.0000         6.9530
    350.00         9.0582         0.0120        -0.0000         0.0120         9.0726        -0.0000        -0.0000        -0.0000         6.7572
    360.00         8.8085         0.0117        -0.0000         0.0117         8.8226        -0.0000        -0.0000        -0.0000         6.5721
    370.00         8.5722         0.0114        -0.0000         0.0114         8.5858        -0.0000        -0.0000        -0.0000         6.3968
    380.00         8.3482         0.0111        -0.0000         0.0111         8.3615        -0.0000        -0.0000        -0.0000         6.2305
    390.00         8.1355         0.0108        -0.0000         0.0108         8.1485        -0.0000        -0.0000        -0.0000         6.0727
    400.00         7.9334         0.0106        -0.0000         0.0106         7.9460        -0.0000        -0.0000        -0.0000         5.9225
    410.00         7.7411         0.0103        -0.0000         0.0103         7.7534        -0.0000        -0.0000        -0.0000         5.7796
    420.00         7.5578         0.0101        -0.0000         0.0101         7.5698        -0.0000        -0.0000        -0.0000         5.6434
    430.00         7.3830         0.0098        -0.0000         0.0098         7.3948        -0.0000        -0.0000        -0.0000         5.5134
    440.00         7.2161         0.0096        -0.0000         0.0096         7.2276        -0.0000        -0.0000        -0.0000         5.3893
    450.00         7.0565         0.0094        -0.0000         0.0094         7.0677        -0.0000        -0.0000        -0.0000         5.2706
    460.00         6.9038         0.0092        -0.0000         0.0092         6.9148        -0.0000        -0.0000        -0.0000         5.1570
    470.00         6.7576         0.0090        -0.0000         0.0090         6.7684        -0.0000        -0.0000        -0.0000         5.0482
    480.00         6.6174         0.0088        -0.0000         0.0088         6.6280        -0.0000        -0.0000        -0.0000         4.9438
    490.00         6.4830         0.0086        -0.0000         0.0086         6.4933        -0.0000        -0.0000        -0.0000         4.8437
    500.00         6.3538         0.0085        -0.0000         0.0085         6.3640        -0.0000        -0.0000        -0.0000         4.7475
    510.00         6.2297         0.0083        -0.0000         0.0083         6.2397        -0.0000        -0.0000        -0.0000         4.6551
    520.00         6.1104         0.0081        -0.0000         0.0081         6.1201        -0.0000        -0.0000        -0.0000         4.5661
    530.00         5.9955         0.0080        -0.0000         0.0080         6.0051        -0.0000        -0.0000        -0.0000         4.4805
    540.00         5.8849         0.0078        -0.0000         0.0078         5.8942        -0.0000        -0.0000        -0.0000         4.3981
    550.00         5.7782         0.0077        -0.0000         0.0077         5.7874        -0.0000        -0.0000        -0.0000         4.3186
    560.00         5.6754         0.0076        -0.0000         0.0076         5.6844        -0.0000        -0.0000        -0.0000         4.2419
    570.00         5.5761         0.0074        -0.0000         0.0074         5.5850        -0.0000        -0.0000        -0.0000         4.1679
    580.00         5.4803         0.0073        -0.0000         0.0073         5.4890        -0.0000        -0.0000        -0.0000         4.0964
    590.00         5.3876         0.0072        -0.0000         0.0072         5.3962        -0.0000        -0.0000        -0.0000         4.0274
    600.00         5.2981         0.0071        -0.0000         0.0071         5.3065        -0.0000        -0.0000        -0.0000         3.9606
    610.00         5.2115         0.0069        -0.0000         0.0069         5.2198        -0.0000        -0.0000        -0.0000         3.8960
    620.00         5.1276         0.0068        -0.0000         0.0068         5.1358        -0.0000        -0.0000        -0.0000         3.8334
    630.00         5.0465         0.0067        -0.0000         0.0067         5.0545        -0.0000        -0.0000        -0.0000         3.7728
    640.00         4.9678         0.0066        -0.0000         0.0066         4.9757        -0.0000        -0.0000        -0.0000         3.7142
    650.00         4.8916         0.0065        -0.0000         0.0065         4.8994        -0.0000        -0.0000        -0.0000         3.6573
    660.00         4.8176         0.0064        -0.0000         0.0064         4.8253        -0.0000        -0.0000        -0.0000         3.6021
    670.00         4.7459         0.0063        -0.0000         0.0063         4.7534        -0.0000        -0.0000        -0.0000         3.5485
    680.00         4.6762         0.0062        -0.0000         0.0062         4.6837        -0.0000        -0.0000        -0.0000         3.4965
    690.00         4.6086         0.0061        -0.0000         0.0061         4.6160        -0.0000        -0.0000        -0.0000         3.4461
    700.00         4.5429         0.0061        -0.0000         0.0061         4.5502        -0.0000        -0.0000        -0.0000         3.3970
    710.00         4.4791         0.0060        -0.0000         0.0060         4.4862        -0.0000        -0.0000        -0.0000         3.3493
    720.00         4.4170         0.0059        -0.0000         0.0059         4.4240        -0.0000        -0.0000        -0.0000         3.3030
    730.00         4.3566         0.0058        -0.0000         0.0058         4.3635        -0.0000        -0.0000        -0.0000         3.2579
    740.00         4.2978         0.0057        -0.0000         0.0057         4.3047        -0.0000        -0.0000        -0.0000         3.2140
    750.00         4.2406         0.0057        -0.0000         0.0057         4.2474        -0.0000        -0.0000        -0.0000         3.1713
    760.00         4.1849         0.0056        -0.0000         0.0056         4.1916        -0.0000        -0.0000        -0.0000         3.1297
    770.00         4.1307         0.0055        -0.0000         0.0055         4.1372        -0.0000        -0.0000        -0.0000         3.0892
    780.00         4.0778         0.0054        -0.0000         0.0054         4.0843        -0.0000        -0.0000        -0.0000         3.0497
    790.00         4.0263         0.0054        -0.0000         0.0054         4.0327        -0.0000        -0.0000        -0.0000         3.0112
    800.00         3.9760         0.0053        -0.0000         0.0053         3.9824        -0.0000        -0.0000        -0.0000         2.9737
    810.00         3.9270         0.0052        -0.0000         0.0052         3.9333        -0.0000        -0.0000        -0.0000         2.9371
    820.00         3.8792         0.0052        -0.0000         0.0052         3.8854        -0.0000        -0.0000        -0.0000         2.9013
    830.00         3.8325         0.0051        -0.0000         0.0051         3.8386        -0.0000        -0.0000        -0.0000         2.8665
    840.00         3.7869         0.0051        -0.0000         0.0051         3.7930        -0.0000        -0.0000        -0.0000         2.8324
    850.00         3.7425         0.0050        -0.0000         0.0050         3.7484        -0.0000        -0.0000        -0.0000         2.7992
    860.00         3.6990         0.0049        -0.0000         0.0049         3.7049        -0.0000        -0.0000        -0.0000         2.7667
    870.00         3.6565         0.0049        -0.0000         0.0049         3.6624        -0.0000        -0.0000        -0.0000         2.7350
    880.00         3.6150         0.0048        -0.0000         0.0048         3.6208        -0.0000        -0.0000        -0.0000         2.7040
    890.00         3.5745         0.0048        -0.0000         0.0048         3.5802        -0.0000        -0.0000        -0.0000         2.6737
    900.00         3.5348         0.0047        -0.0000         0.0047         3.5405        -0.0000        -0.0000        -0.0000         2.6440
    910.00         3.4960         0.0047        -0.0000         0.0047         3.5016        -0.0000        -0.0000        -0.0000         2.6150
    920.00         3.4581         0.0046        -0.0000         0.0046         3.4636        -0.0000        -0.0000        -0.0000         2.5867
    930.00         3.4209         0.0046        -0.0000         0.0046         3.4264        -0.0000        -0.0000        -0.0000         2.5589
    940.00         3.3846         0.0045        -0.0000         0.0045         3.3900        -0.0000        -0.0000        -0.0000         2.5318
    950.00         3.3490         0.0045        -0.0000         0.0045         3.3543        -0.0000        -0.0000        -0.0000         2.5052
    960.00         3.3141         0.0044        -0.0000         0.0044         3.3194        -0.0000        -0.0000        -0.0000         2.4791
    970.00         3.2800         0.0044        -0.0000         0.0044         3.2852        -0.0000        -0.0000        -0.0000         2.4536
    980.00         3.2466         0.0043        -0.0000         0.0043         3.2518        -0.0000        -0.0000        -0.0000         2.4286
    990.00         3.2138         0.0043        -0.0000         0.0043         3.2189        -0.0000        -0.0000        -0.0000         2.4041
   1000.00         3.1817         0.0042        -0.0000         0.0042         3.1868        -0.0000        -0.0000        -0.0000         2.3801
