# k-axis, Phonon energy [meV], band-1, band-2, band-3, band-4, band-5, band-6, band-7
     1     0.000000    0.000000     0.000000     0.000000 
     2     0.011920    0.376915     0.376915     0.525679 
     3     0.023840    0.753454     0.753454     1.050861 
     4     0.035760    1.129238     1.129238     1.575048 
     5     0.047680    1.503894     1.503894     2.097743 
     6     0.059600    1.877044     1.877044     2.618451 
     7     0.071520    2.248317     2.248317     3.136679 
     8     0.083441    2.617342     2.617342     3.651931 
     9     0.095361    2.983751     2.983751     4.163718 
    10     0.107281    3.347177     3.347177     4.671552 
    11     0.119201    3.707260     3.707260     5.174944 
    12     0.131121    4.063639     4.063639     5.673413 
    13     0.143041    4.415963     4.415963     6.166478 
    14     0.154961    4.763878     4.763878     6.653661 
    15     0.166881    5.107041     5.107041     7.134491 
    16     0.178801    5.445112     5.445112     7.608501 
    17     0.190721    5.777757     5.777757     8.075225 
    18     0.202641    6.104645     6.104645     8.534208 
    19     0.214561    6.425456     6.425456     8.984995 
    20     0.226482    6.739871     6.739871     9.427140 
    21     0.238402    7.047585     7.047585     9.860205 
    22     0.250322    7.348293     7.348293    10.283757 
    23     0.262242    7.641702     7.641702    10.697369 
    24     0.274162    7.927523     7.927523    11.100625 
    25     0.286082    8.205479     8.205479    11.493117 
    26     0.298002    8.475298     8.475298    11.874444 
    27     0.309922    8.736717     8.736717    12.244216 
    28     0.321842    8.989484     8.989484    12.602059 
    29     0.333762    9.233351     9.233351    12.947591 
    30     0.345682    9.468086     9.468086    13.280465 
    31     0.357602    9.693459     9.693459    13.600321 
    32     0.369523    9.909255     9.909255    13.906837 
    33     0.381443   10.115265    10.115265    14.199690 
    34     0.393363   10.311293    10.311293    14.478558 
    35     0.405283   10.497150    10.497150    14.743156 
    36     0.417203   10.672657    10.672657    14.993199 
    37     0.429123   10.837647    10.837647    15.228426 
    38     0.441043   10.991964    10.991964    15.448577 
    39     0.452963   11.135458    11.135458    15.653417 
    40     0.464883   11.267995    11.267995    15.842722 
    41     0.476803   11.389450    11.389450    16.016294 
    42     0.488723   11.499705    11.499705    16.173947 
    43     0.500643   11.598658    11.598658    16.315495 
    44     0.512564   11.686212    11.686212    16.440789 
    45     0.524484   11.762288    11.762288    16.549693 
    46     0.536404   11.826812    11.826812    16.642096 
    47     0.548324   11.879723    11.879723    16.717885 
    48     0.560244   11.920971    11.920971    16.776974 
    49     0.572164   11.950518    11.950518    16.819313 
    50     0.584084   11.968335    11.968335    16.844853 
    51     0.596004   11.974407    11.974407    16.853556 
    52     0.596004   11.974407    11.974414    16.853556 
    53     0.612862   11.968289    11.992197    16.845088 
    54     0.629719   11.950335    12.043903    16.820255 
    55     0.646577   11.920564    12.128081    16.779069 
    56     0.663434   11.879006    12.242409    16.721567 
    57     0.680292   11.825702    12.383809    16.647799 
    58     0.697149   11.760707    12.548586    16.557827 
    59     0.714007   11.684086    12.732585    16.451724 
    60     0.730864   11.595916    12.931325    16.329592 
    61     0.747722   11.496286    13.140169    16.191528 
    62     0.764579   11.385298    13.354407    16.037656 
    63     0.781437   11.263061    13.569388    15.868101 
    64     0.798295   11.129701    13.780575    15.683036 
    65     0.815152   10.985350    13.983642    15.482598 
    66     0.832010   10.830155    14.174472    15.266959 
    67     0.848867   10.664270    14.349210    15.036344 
    68     0.865725   10.487864    14.504271    14.790926 
    69     0.882582   10.301111    14.530927    14.636385 
    70     0.899440   10.104200    14.256597    14.742536 
    71     0.916297    9.897330    13.968182    14.820048 
    72     0.933155    9.680704    13.665931    14.866491 
    73     0.950012    9.454541    13.350129    14.879757 
    74     0.966870    9.219067    13.021061    14.858011 
    75     0.983728    8.974517    12.679038    14.799666 
    76     1.000585    8.721134    12.324372    14.703445 
    77     1.017443    8.459170    11.957399    14.568319 
    78     1.034300    8.188886    11.578462    14.393495 
    79     1.051158    7.910553    11.187920    14.178452 
    80     1.068015    7.624443    10.786145    13.922904 
    81     1.084873    7.330843    10.373521    13.626791 
    82     1.101730    7.030043     9.950445    13.290284 
    83     1.118588    6.722339     9.517327    12.913782 
    84     1.135445    6.408039     9.074587    12.497891 
    85     1.152303    6.087450     8.622659    12.043406 
    86     1.169160    5.760891     8.161988    11.551339 
    87     1.186018    5.428681     7.693026    11.022877 
    88     1.202876    5.091149     7.216240    10.459388 
    89     1.219733    4.748630     6.732104     9.862411 
    90     1.236591    4.401456     6.241102     9.233642 
    91     1.253448    4.049970     5.743729     8.574930 
    92     1.270306    3.694520     5.240485     7.888262 
    93     1.287163    3.335450     4.731878     7.175758 
    94     1.304021    2.973116     4.218424     6.439653 
    95     1.320878    2.607872     3.700647     5.682292 
    96     1.337736    2.240077     3.179072     4.906118 
    97     1.354593    1.870088     2.654233     4.113658 
    98     1.371451    1.498271     2.126667     3.307512 
    99     1.388309    1.124987     1.596917     2.490344 
   100     1.405166    0.750603     1.065525     1.664865 
   101     1.422024    0.375485     0.533037     0.833826 
   102     1.438881    0.000000     0.000000     0.000000 
   103     1.438881    0.000000     0.000000     0.000000 
   104     1.449204    0.266014     0.266014     0.528037 
   105     1.459527    0.531767     0.531767     1.055553 
   106     1.469850    0.796994     0.796994     1.582027 
   107     1.480174    1.061436     1.061436     2.106942 
   108     1.490497    1.324830     1.324830     2.629778 
   109     1.500820    1.586919     1.586919     3.150022 
   110     1.511143    1.847442     1.847442     3.667159 
   111     1.521466    2.106144     2.106144     4.180679 
   112     1.531789    2.362767     2.362767     4.690075 
   113     1.542112    2.617062     2.617062     5.194846 
   114     1.552435    2.868774     2.868774     5.694494 
   115     1.562758    3.117658     3.117658     6.188527 
   116     1.573081    3.363467     3.363467     6.676456 
   117     1.583404    3.605958     3.605958     7.157799 
   118     1.593728    3.844894     3.844894     7.632085 
   119     1.604051    4.080038     4.080038     8.098843 
   120     1.614374    4.311158     4.311158     8.557614 
   121     1.624697    4.538025     4.538026     9.007945 
   122     1.635020    4.760418     4.760418     9.449392 
   123     1.645343    4.978116     4.978116     9.881521 
   124     1.655666    5.190904     5.190904    10.303903 
   125     1.665989    5.398573     5.398573    10.716125 
   126     1.676312    5.600917     5.600918    11.117778 
   127     1.686635    5.797739     5.797739    11.508465 
   128     1.696958    5.988842     5.988842    11.887802 
   129     1.707282    6.174038     6.174038    12.255417 
   130     1.717605    6.353146     6.353146    12.610948 
   131     1.727928    6.525987     6.525987    12.954038 
   132     1.738251    6.692393     6.692393    13.284345 
   133     1.748574    6.852200     6.852200    13.601561 
   134     1.758897    7.005247     7.005247    13.905361 
   135     1.769220    7.151386     7.151387    14.195450 
   136     1.779543    7.290473     7.290473    14.471528 
   137     1.789866    7.422369     7.422369    14.733349 
   138     1.800189    7.546945     7.546945    14.980627 
   139     1.810513    7.664079     7.664079    15.213139 
   140     1.820836    7.773654     7.773654    15.430638 
   141     1.831159    7.875562     7.875562    15.632923 
   142     1.841482    7.969703     7.969703    15.819798 
   143     1.851805    8.055984     8.055985    15.991064 
   144     1.862128    8.134320     8.134320    16.146560 
   145     1.872451    8.204634     8.204634    16.286137 
   146     1.882774    8.266857     8.266857    16.409646 
   147     1.893097    8.320926     8.320926    16.516975 
   148     1.903420    8.366790     8.366790    16.608014 
   149     1.913743    8.404401     8.404402    16.682674 
   150     1.924067    8.433725     8.433725    16.740883 
   151     1.934390    8.454731     8.454731    16.782577 
   152     1.944713    8.467398     8.467398    16.807721 
   153     1.955036    8.471715     8.471715    16.816288 
