# Temperature [K], Thermal Conductivity (xx, xy, xz, yx, yy, yz, zx, zy, zz) [W/mK]
      0.00         0.0000         0.0000         0.0000         0.0000         0.0000         0.0000         0.0000         0.0000         0.0000
     10.00       153.8325        -0.0000        -0.0000        -0.0000       153.8325        -0.0000        -0.0000        -0.0000       153.8325
     20.00        35.7450        -0.0003        -0.0003        -0.0003        35.7450        -0.0003        -0.0003        -0.0003        35.7450
     30.00        19.6632        -0.0008        -0.0008        -0.0008        19.6632        -0.0008        -0.0008        -0.0008        19.6632
     40.00        15.4060        -0.0013        -0.0013        -0.0013        15.4060        -0.0013        -0.0013        -0.0013        15.4060
     50.00        13.1292        -0.0016        -0.0016        -0.0016        13.1292        -0.0016        -0.0016        -0.0016        13.1292
     60.00        11.4989        -0.0017        -0.0017        -0.0017        11.4989        -0.0017        -0.0017        -0.0017        11.4989
     70.00        10.2185        -0.0017        -0.0017        -0.0017        10.2185        -0.0017        -0.0017        -0.0017        10.2185
     80.00         9.1780        -0.0017        -0.0017        -0.0017         9.1780        -0.0017        -0.0017        -0.0017         9.1780
     90.00         8.3166        -0.0016        -0.0016        -0.0016         8.3166        -0.0016        -0.0016        -0.0016         8.3166
    100.00         7.5938        -0.0016        -0.0016        -0.0016         7.5938        -0.0016        -0.0016        -0.0016         7.5938
    110.00         6.9802        -0.0015        -0.0015        -0.0015         6.9802        -0.0015        -0.0015        -0.0015         6.9802
    120.00         6.4540        -0.0014        -0.0014        -0.0014         6.4540        -0.0014        -0.0014        -0.0014         6.4540
    130.00         5.9985        -0.0013        -0.0013        -0.0013         5.9985        -0.0013        -0.0013        -0.0013         5.9985
    140.00         5.6009        -0.0013        -0.0013        -0.0013         5.6009        -0.0013        -0.0013        -0.0013         5.6009
    150.00         5.2511        -0.0012        -0.0012        -0.0012         5.2511        -0.0012        -0.0012        -0.0012         5.2511
    160.00         4.9413        -0.0012        -0.0012        -0.0012         4.9413        -0.0012        -0.0012        -0.0012         4.9413
    170.00         4.6652        -0.0011        -0.0011        -0.0011         4.6652        -0.0011        -0.0011        -0.0011         4.6652
    180.00         4.4176        -0.0010        -0.0010        -0.0010         4.4176        -0.0010        -0.0010        -0.0010         4.4176
    190.00         4.1945        -0.0010        -0.0010        -0.0010         4.1945        -0.0010        -0.0010        -0.0010         4.1945
    200.00         3.9924        -0.0010        -0.0010        -0.0010         3.9924        -0.0010        -0.0010        -0.0010         3.9924
    210.00         3.8086        -0.0009        -0.0009        -0.0009         3.8086        -0.0009        -0.0009        -0.0009         3.8086
    220.00         3.6407        -0.0009        -0.0009        -0.0009         3.6407        -0.0009        -0.0009        -0.0009         3.6407
    230.00         3.4868        -0.0008        -0.0008        -0.0008         3.4868        -0.0008        -0.0008        -0.0008         3.4868
    240.00         3.3453        -0.0008        -0.0008        -0.0008         3.3453        -0.0008        -0.0008        -0.0008         3.3453
    250.00         3.2146        -0.0008        -0.0008        -0.0008         3.2146        -0.0008        -0.0008        -0.0008         3.2146
    260.00         3.0937        -0.0008        -0.0008        -0.0008         3.0937        -0.0008        -0.0008        -0.0008         3.0937
    270.00         2.9814        -0.0007        -0.0007        -0.0007         2.9814        -0.0007        -0.0007        -0.0007         2.9814
    280.00         2.8770        -0.0007        -0.0007        -0.0007         2.8770        -0.0007        -0.0007        -0.0007         2.8770
    290.00         2.7795        -0.0007        -0.0007        -0.0007         2.7795        -0.0007        -0.0007        -0.0007         2.7795
    300.00         2.6884        -0.0007        -0.0007        -0.0007         2.6884        -0.0007        -0.0007        -0.0007         2.6884
    310.00         2.6030        -0.0006        -0.0006        -0.0006         2.6030        -0.0006        -0.0006        -0.0006         2.6030
    320.00         2.5228        -0.0006        -0.0006        -0.0006         2.5228        -0.0006        -0.0006        -0.0006         2.5228
    330.00         2.4474        -0.0006        -0.0006        -0.0006         2.4474        -0.0006        -0.0006        -0.0006         2.4474
    340.00         2.3764        -0.0006        -0.0006        -0.0006         2.3764        -0.0006        -0.0006        -0.0006         2.3764
    350.00         2.3093        -0.0006        -0.0006        -0.0006         2.3093        -0.0006        -0.0006        -0.0006         2.3093
    360.00         2.2459        -0.0006        -0.0006        -0.0006         2.2459        -0.0006        -0.0006        -0.0006         2.2459
    370.00         2.1858        -0.0005        -0.0005        -0.0005         2.1858        -0.0005        -0.0005        -0.0005         2.1858
    380.00         2.1289        -0.0005        -0.0005        -0.0005         2.1289        -0.0005        -0.0005        -0.0005         2.1289
    390.00         2.0749        -0.0005        -0.0005        -0.0005         2.0749        -0.0005        -0.0005        -0.0005         2.0749
    400.00         2.0235        -0.0005        -0.0005        -0.0005         2.0235        -0.0005        -0.0005        -0.0005         2.0235
    410.00         1.9746        -0.0005        -0.0005        -0.0005         1.9746        -0.0005        -0.0005        -0.0005         1.9746
    420.00         1.9279        -0.0005        -0.0005        -0.0005         1.9279        -0.0005        -0.0005        -0.0005         1.9279
    430.00         1.8835        -0.0005        -0.0005        -0.0005         1.8835        -0.0005        -0.0005        -0.0005         1.8835
    440.00         1.8410        -0.0005        -0.0005        -0.0005         1.8410        -0.0005        -0.0005        -0.0005         1.8410
    450.00         1.8004        -0.0004        -0.0004        -0.0004         1.8004        -0.0004        -0.0004        -0.0004         1.8004
    460.00         1.7615        -0.0004        -0.0004        -0.0004         1.7615        -0.0004        -0.0004        -0.0004         1.7615
    470.00         1.7243        -0.0004        -0.0004        -0.0004         1.7243        -0.0004        -0.0004        -0.0004         1.7243
    480.00         1.6886        -0.0004        -0.0004        -0.0004         1.6886        -0.0004        -0.0004        -0.0004         1.6886
    490.00         1.6543        -0.0004        -0.0004        -0.0004         1.6543        -0.0004        -0.0004        -0.0004         1.6543
    500.00         1.6215        -0.0004        -0.0004        -0.0004         1.6215        -0.0004        -0.0004        -0.0004         1.6215
    510.00         1.5898        -0.0004        -0.0004        -0.0004         1.5898        -0.0004        -0.0004        -0.0004         1.5898
    520.00         1.5594        -0.0004        -0.0004        -0.0004         1.5594        -0.0004        -0.0004        -0.0004         1.5594
    530.00         1.5302        -0.0004        -0.0004        -0.0004         1.5302        -0.0004        -0.0004        -0.0004         1.5302
    540.00         1.5020        -0.0004        -0.0004        -0.0004         1.5020        -0.0004        -0.0004        -0.0004         1.5020
    550.00         1.4748        -0.0004        -0.0004        -0.0004         1.4748        -0.0004        -0.0004        -0.0004         1.4748
    560.00         1.4486        -0.0004        -0.0004        -0.0004         1.4486        -0.0004        -0.0004        -0.0004         1.4486
    570.00         1.4233        -0.0004        -0.0004        -0.0004         1.4233        -0.0004        -0.0004        -0.0004         1.4233
    580.00         1.3989        -0.0003        -0.0003        -0.0003         1.3989        -0.0003        -0.0003        -0.0003         1.3989
    590.00         1.3753        -0.0003        -0.0003        -0.0003         1.3753        -0.0003        -0.0003        -0.0003         1.3753
    600.00         1.3524        -0.0003        -0.0003        -0.0003         1.3524        -0.0003        -0.0003        -0.0003         1.3524
    610.00         1.3304        -0.0003        -0.0003        -0.0003         1.3304        -0.0003        -0.0003        -0.0003         1.3304
    620.00         1.3090        -0.0003        -0.0003        -0.0003         1.3090        -0.0003        -0.0003        -0.0003         1.3090
    630.00         1.2883        -0.0003        -0.0003        -0.0003         1.2883        -0.0003        -0.0003        -0.0003         1.2883
    640.00         1.2682        -0.0003        -0.0003        -0.0003         1.2682        -0.0003        -0.0003        -0.0003         1.2682
    650.00         1.2488        -0.0003        -0.0003        -0.0003         1.2488        -0.0003        -0.0003        -0.0003         1.2488
    660.00         1.2299        -0.0003        -0.0003        -0.0003         1.2299        -0.0003        -0.0003        -0.0003         1.2299
    670.00         1.2116        -0.0003        -0.0003        -0.0003         1.2116        -0.0003        -0.0003        -0.0003         1.2116
    680.00         1.1939        -0.0003        -0.0003        -0.0003         1.1939        -0.0003        -0.0003        -0.0003         1.1939
    690.00         1.1766        -0.0003        -0.0003        -0.0003         1.1766        -0.0003        -0.0003        -0.0003         1.1766
    700.00         1.1599        -0.0003        -0.0003        -0.0003         1.1599        -0.0003        -0.0003        -0.0003         1.1599
    710.00         1.1436        -0.0003        -0.0003        -0.0003         1.1436        -0.0003        -0.0003        -0.0003         1.1436
    720.00         1.1277        -0.0003        -0.0003        -0.0003         1.1277        -0.0003        -0.0003        -0.0003         1.1277
    730.00         1.1123        -0.0003        -0.0003        -0.0003         1.1123        -0.0003        -0.0003        -0.0003         1.1123
    740.00         1.0973        -0.0003        -0.0003        -0.0003         1.0973        -0.0003        -0.0003        -0.0003         1.0973
    750.00         1.0827        -0.0003        -0.0003        -0.0003         1.0827        -0.0003        -0.0003        -0.0003         1.0827
    760.00         1.0685        -0.0003        -0.0003        -0.0003         1.0685        -0.0003        -0.0003        -0.0003         1.0685
    770.00         1.0547        -0.0003        -0.0003        -0.0003         1.0547        -0.0003        -0.0003        -0.0003         1.0547
    780.00         1.0412        -0.0003        -0.0003        -0.0003         1.0412        -0.0003        -0.0003        -0.0003         1.0412
    790.00         1.0281        -0.0003        -0.0003        -0.0003         1.0281        -0.0003        -0.0003        -0.0003         1.0281
    800.00         1.0152        -0.0003        -0.0003        -0.0003         1.0152        -0.0003        -0.0003        -0.0003         1.0152
    810.00         1.0027        -0.0003        -0.0003        -0.0003         1.0027        -0.0003        -0.0003        -0.0003         1.0027
    820.00         0.9905        -0.0002        -0.0002        -0.0002         0.9905        -0.0002        -0.0002        -0.0002         0.9905
    830.00         0.9786        -0.0002        -0.0002        -0.0002         0.9786        -0.0002        -0.0002        -0.0002         0.9786
    840.00         0.9670        -0.0002        -0.0002        -0.0002         0.9670        -0.0002        -0.0002        -0.0002         0.9670
    850.00         0.9556        -0.0002        -0.0002        -0.0002         0.9556        -0.0002        -0.0002        -0.0002         0.9556
    860.00         0.9446        -0.0002        -0.0002        -0.0002         0.9446        -0.0002        -0.0002        -0.0002         0.9446
    870.00         0.9337        -0.0002        -0.0002        -0.0002         0.9337        -0.0002        -0.0002        -0.0002         0.9337
    880.00         0.9231        -0.0002        -0.0002        -0.0002         0.9231        -0.0002        -0.0002        -0.0002         0.9231
    890.00         0.9128        -0.0002        -0.0002        -0.0002         0.9128        -0.0002        -0.0002        -0.0002         0.9128
    900.00         0.9027        -0.0002        -0.0002        -0.0002         0.9027        -0.0002        -0.0002        -0.0002         0.9027
    910.00         0.8928        -0.0002        -0.0002        -0.0002         0.8928        -0.0002        -0.0002        -0.0002         0.8928
    920.00         0.8831        -0.0002        -0.0002        -0.0002         0.8831        -0.0002        -0.0002        -0.0002         0.8831
    930.00         0.8736        -0.0002        -0.0002        -0.0002         0.8736        -0.0002        -0.0002        -0.0002         0.8736
    940.00         0.8643        -0.0002        -0.0002        -0.0002         0.8643        -0.0002        -0.0002        -0.0002         0.8643
    950.00         0.8552        -0.0002        -0.0002        -0.0002         0.8552        -0.0002        -0.0002        -0.0002         0.8552
    960.00         0.8463        -0.0002        -0.0002        -0.0002         0.8463        -0.0002        -0.0002        -0.0002         0.8463
    970.00         0.8376        -0.0002        -0.0002        -0.0002         0.8376        -0.0002        -0.0002        -0.0002         0.8376
    980.00         0.8291        -0.0002        -0.0002        -0.0002         0.8291        -0.0002        -0.0002        -0.0002         0.8291
    990.00         0.8207        -0.0002        -0.0002        -0.0002         0.8207        -0.0002        -0.0002        -0.0002         0.8207
   1000.00         0.8125        -0.0002        -0.0002        -0.0002         0.8125        -0.0002        -0.0002        -0.0002         0.8125
