# k-axis, Phonon energy [meV], band-1, band-2, band-3, band-4, band-5, band-6, band-7
     1     0.000000    0.000000     0.000000     0.000000    44.265745    44.265745    44.265745 
     2     0.012310    0.375411     0.375411     0.914582    44.268559    44.268559    44.275800 
     3     0.024621    0.750512     0.750512     1.829614    44.276953    44.276953    44.305852 
     4     0.036931    1.124993     1.124993     2.745541    44.290888    44.290888    44.355618 
     5     0.049242    1.498543     1.498543     3.662789    44.310278    44.310278    44.424600 
     6     0.061552    1.870848     1.870848     4.581764    44.334975    44.334975    44.512155 
     7     0.073862    2.241596     2.241596     5.502837    44.364830    44.364830    44.617426 
     8     0.086173    2.610467     2.610467     6.426348    44.399643    44.399643    44.739398 
     9     0.098483    2.977145     2.977145     7.352587    44.439193    44.439193    44.876904 
    10     0.110793    3.341306     3.341306     8.281798    44.483218    44.483218    45.028643 
    11     0.123104    3.702627     3.702627     9.214166    44.531459    44.531459    45.193177 
    12     0.135414    4.060779     4.060779    10.149822    44.583580    44.583580    45.368944 
    13     0.147725    4.415434     4.415434    11.088826    44.639297    44.639297    45.554306 
    14     0.160035    4.766259     4.766259    12.031174    44.698261    44.698261    45.747529 
    15     0.172345    5.112919     5.112919    12.976788    44.760127    44.760127    45.946802 
    16     0.184656    5.455082     5.455082    13.925533    44.824523    44.824523    46.150278 
    17     0.196966    5.792408     5.792408    14.877178    44.891112    44.891112    46.356072 
    18     0.209277    6.124560     6.124560    15.831428    44.959512    44.959512    46.562264 
    19     0.221587    6.451201     6.451201    16.787909    45.029362    45.029362    46.766930 
    20     0.233897    6.771995     6.771995    17.746200    45.100304    45.100304    46.968149 
    21     0.246208    7.086605     7.086605    18.705755    45.171977    45.171977    47.164013 
    22     0.258518    7.394699     7.394699    19.666005    45.244034    45.244034    47.352624 
    23     0.270829    7.695947     7.695947    20.626292    45.316128    45.316128    47.532159 
    24     0.283139    7.990020     7.990020    21.585897    45.387950    45.387950    47.700797 
    25     0.295449    8.276595     8.276595    22.544027    45.459176    45.459176    47.856788 
    26     0.307760    8.555355     8.555355    23.499863    45.529510    45.529510    47.998448 
    27     0.320070    8.825987     8.825987    24.452501    45.598691    45.598691    48.124114 
    28     0.332380    9.088187     9.088187    25.400985    45.666458    45.666458    48.232262 
    29     0.344691    9.341651     9.341651    26.344337    45.732552    45.732552    48.321379 
    30     0.357001    9.586090     9.586090    27.281526    45.796774    45.796774    48.390076 
    31     0.369312    9.821222     9.821222    28.211488    45.858900    45.858900    48.437040 
    32     0.381622   10.046769    10.046769    29.133118    45.918770    45.918770    48.461017 
    33     0.393932   10.262468    10.262468    30.045301    45.976198    45.976198    48.460868 
    34     0.406243   10.468062    10.468062    30.946896    46.031059    46.031059    48.435527 
    35     0.418553   10.663304    10.663304    31.836737    46.083217    46.083217    48.384050 
    36     0.430864   10.847964    10.847964    32.713685    46.132549    46.132549    48.305559 
    37     0.443174   11.021815    11.021815    33.576549    46.178979    46.178979    48.199271 
    38     0.455484   11.184646    11.184646    34.424188    46.222422    46.222422    48.064517 
    39     0.467795   11.336260    11.336260    35.255424    46.262815    46.262815    47.900690 
    40     0.480105   11.476470    11.476470    36.069117    46.300095    46.300095    47.707330 
    41     0.492416   11.605102    11.605102    36.864164    46.334227    46.334227    47.484005 
    42     0.504726   11.721997    11.721997    37.639435    46.365160    46.365160    47.230441 
    43     0.517036   11.827008    11.827008    38.393878    46.392894    46.392894    46.946416 
    44     0.529347   11.920004    11.920004    39.126439    46.417393    46.417393    46.631804 
    45     0.541657   12.000869    12.000869    39.836125    46.286594    46.438643    46.438643 
    46     0.553967   12.069499    12.069499    40.521970    45.910823    46.456645    46.456645 
    47     0.566278   12.125808    12.125808    41.183081    45.504652    46.471386    46.471386 
    48     0.578588   12.169727    12.169727    41.818578    45.068292    46.482867    46.482867 
    49     0.590899   12.201195    12.201195    42.427679    44.602078    46.491087    46.491087 
    50     0.603209   12.220177    12.220177    43.009617    44.106381    46.496046    46.496046 
    51     0.615519   12.226646    12.226668    43.572697    43.572709    46.497720    46.497732 
    52     0.615519   12.226667    12.226712    43.572697    43.572697    46.497720    46.497720 
    53     0.632929   12.215792    12.261824    43.545334    43.580830    46.496331    46.510675 
    54     0.650338   12.184054    12.363298    43.466037    43.604820    46.492227    46.547448 
    55     0.667748   12.131794    12.526047    43.337457    43.645064    46.485322    46.604751 
    56     0.685157   12.059602    12.742268    43.163029    43.702181    46.475515    46.678148 
    57     0.702567   11.968290    13.002006    42.946126    43.776978    46.462621    46.762876 
    58     0.719977   11.858878    13.293917    42.689562    43.870373    46.446454    46.854447 
    59     0.737386   11.732570    13.605987    42.395420    43.983256    46.426815    46.948846 
    60     0.754796   11.590736    13.926128    42.065063    44.116510    46.403458    47.042574 
    61     0.772205   11.434889    14.242711    41.699284    44.270754    46.376157    47.132609 
    62     0.789615   11.266639    14.544887    41.298432    44.446309    46.344691    47.216270 
    63     0.807024   11.087678    14.822900    40.862543    44.643041    46.308861    47.291266 
    64     0.824434   10.899728    15.068269    40.391444    44.860254    46.268530    47.355587 
    65     0.841843   10.704504    15.273877    39.884788    45.096609    46.223550    47.407497 
    66     0.859253   10.503676    15.434047    39.342177    45.350099    46.173896    47.445596 
    67     0.876662   10.298819    15.544488    38.763128    45.617957    46.119556    47.468768 
    68     0.894072   10.091369    15.602300    38.147183    45.896776    46.060616    47.476207 
    69     0.911481    9.882588    15.605809    37.493870    45.997237    46.182513    47.467454 
    70     0.928891    9.673521    15.554494    36.802806    45.929656    46.470655    47.442360 
    71     0.946300    9.464959    15.448850    36.073642    45.858181    46.756280    47.401050 
    72     0.963710    9.257423    15.290143    35.306157    45.783198    47.034280    47.344007 
    73     0.981119    9.051140    15.080382    34.500274    45.705190    47.271925    47.299449 
    74     0.998529    8.846039    14.822045    33.656057    45.624652    47.185759    47.546702 
    75     1.015938    8.641754    14.518033    32.773753    45.542193    47.086674    47.771155 
    76     1.033348    8.437646    14.171534    31.853834    45.458408    46.975972    47.968308 
    77     1.050757    8.232818    13.785894    30.896969    45.373977    46.855104    48.134107 
    78     1.068167    8.026159    13.364560    29.904088    45.289547    46.725582    48.265079 
    79     1.085576    7.816387    12.911042    28.876343    45.205811    46.588956    48.358387 
    80     1.102986    7.602093    12.428821    27.815124    45.123414    46.446813    48.411872 
    81     1.120395    7.381798    11.921322    26.722029    45.043000    46.300691    48.424146 
    82     1.137805    7.153999    11.391922    25.598894    44.965166    46.152125    48.394601 
    83     1.155214    6.917230    10.843892    24.447715    44.890430    46.002531    48.323437 
    84     1.172624    6.670097    10.280389    23.270637    44.819291    45.853284    48.211656 
    85     1.190034    6.411331     9.704453    22.069903    44.752131    45.705686    48.061095 
    86     1.207443    6.139816     9.118981    20.847869    44.689298    45.560902    47.874369 
    87     1.224853    5.854627     8.526727    19.606891    44.631015    45.420048    47.654899 
    88     1.242262    5.555053     7.930279    18.349300    44.577443    45.284092    47.406815 
    89     1.259672    5.240606     7.332048    17.077414    44.528669    45.153975    47.134989 
    90     1.277081    4.911044     6.734245    15.793415    44.484681    45.030503    46.844888 
    91     1.294491    4.566364     6.138852    14.499374    44.445404    44.914408    46.542501 
    92     1.311900    4.206812     5.547603    13.197187    44.410702    44.806360    46.234299 
    93     1.329310    3.832870     4.961939    11.888574    44.380402    44.706928    45.927027 
    94     1.346719    3.445250     4.382979    10.575037    44.354254    44.616633    45.627628 
    95     1.364129    3.044883     3.811486     9.257862    44.332037    44.535947    45.343044 
    96     1.381538    2.632896     3.247827     7.938115    44.313465    44.465241    45.080045 
    97     1.398948    2.210598     2.691963     6.616638    44.298277    44.404863    44.845054 
    98     1.416357    1.779456     2.143429     5.294077    44.286239    44.355072    44.643933 
    99     1.433767    1.341076     1.601354     3.970888    44.277126    44.316130    44.481792 
   100     1.451176    0.897165     1.064497     2.647373    44.270754    44.288185    44.362834 
   101     1.468586    0.449523     0.531303     1.323712    44.266997    44.271361    44.290181 
   102     1.485995    0.000000     0.000000     0.000000    44.265745    44.265745    44.265745 
   103     1.485995    0.000000     0.000000     0.000000    44.265745    44.265745    44.265745 
   104     1.496656    0.292888     0.292888     0.816779    44.266761    44.266761    44.275465 
   105     1.507318    0.585287     0.585287     1.633893    44.269799    44.269799    44.304538 
   106     1.517979    0.876708     0.876708     2.451667    44.274857    44.274857    44.352692 
   107     1.528640    1.166668     1.166668     3.270413    44.281924    44.281924    44.419455 
   108     1.539301    1.454691     1.454691     4.090413    44.290987    44.290987    44.504196 
   109     1.549962    1.740306     1.740306     4.911923    44.302046    44.302046    44.606120 
   110     1.560623    2.023056     2.023056     5.735154    44.315076    44.315076    44.724260 
   111     1.571284    2.302493     2.302493     6.560274    44.330041    44.330041    44.857539 
   112     1.581945    2.578185     2.578185     7.387402    44.346939    44.346939    45.004728 
   113     1.592606    2.849715     2.849715     8.216595    44.365710    44.365710    45.164476 
   114     1.603268    3.116684     3.116684     9.047853    44.386340    44.386340    45.335357 
   115     1.613929    3.378709     3.378709     9.881108    44.408781    44.408781    45.515860 
   116     1.624590    3.635432     3.635432    10.716225    44.432969    44.432969    45.704384 
   117     1.635251    3.886513     3.886513    11.552998    44.458856    44.458856    45.899330 
   118     1.645912    4.131637     4.131637    12.391149    44.486392    44.486392    46.099025 
   119     1.656573    4.370514     4.370514    13.230327    44.515478    44.515478    46.301794 
   120     1.667234    4.602875     4.602875    14.070093    44.546064    44.546064    46.505977 
   121     1.677895    4.828479     4.828479    14.909959    44.578038    44.578038    46.709899 
   122     1.688556    5.047112     5.047112    15.749316    44.611314    44.611314    46.911949 
   123     1.699218    5.258583     5.258583    16.587532    44.645781    44.645781    47.110540 
   124     1.709879    5.462731     5.462731    17.423852    44.681338    44.681338    47.304135 
   125     1.720540    5.659419     5.659419    18.257468    44.717863    44.717863    47.491270 
   126     1.731201    5.848537     5.848537    19.087477    44.755205    44.755205    47.670558 
   127     1.741862    6.030000     6.030000    19.912911    44.793255    44.793255    47.840696 
   128     1.752523    6.203748     6.203748    20.732704    44.831850    44.831850    48.000481 
   129     1.763184    6.369746     6.369746    21.545716    44.870842    44.870842    48.148836 
   130     1.773845    6.527980     6.527980    22.350718    44.910069    44.910069    48.284792 
   131     1.784506    6.678459     6.678459    23.146421    44.949371    44.949371    48.407483 
   132     1.795167    6.821212     6.821212    23.931388    44.988585    44.988585    48.516226 
   133     1.805829    6.956286     6.956286    24.704156    45.027528    45.027528    48.610475 
   134     1.816490    7.083747     7.083747    25.463087    45.066036    45.066036    48.689822 
   135     1.827151    7.203672     7.203672    26.206483    45.103912    45.103912    48.754056 
   136     1.837812    7.316155     7.316155    26.932535    45.141006    45.141006    48.803165 
   137     1.848473    7.421300     7.421300    27.639271    45.177109    45.177109    48.837309 
   138     1.859134    7.519220     7.519220    28.324607    45.212084    45.212084    48.856873 
   139     1.869795    7.610034     7.610034    28.986326    45.245732    45.245732    48.862477 
   140     1.880456    7.693865     7.693865    29.622045    45.277880    45.277880    48.854976 
   141     1.891117    7.770844     7.770844    30.229213    45.308392    45.308392    48.835474 
   142     1.901779    7.841095     7.841095    30.805100    45.337093    45.337093    48.805359 
   143     1.912440    7.904747     7.904747    31.346843    45.363848    45.363848    48.766268 
   144     1.923101    7.961921     7.961921    31.851392    45.388495    45.388495    48.720111 
   145     1.933762    8.012734     8.012734    32.315548    45.410923    45.410923    48.668994 
   146     1.944423    8.057298     8.057298    32.736026    45.431020    45.431020    48.615310 
   147     1.955084    8.095712     8.095712    33.109516    45.448650    45.448650    48.561528 
   148     1.965745    8.128069     8.128069    33.432682    45.463751    45.463751    48.510237 
   149     1.976406    8.154447     8.154447    33.702413    45.476224    45.476224    48.463956 
   150     1.987067    8.174915     8.174915    33.915820    45.486018    45.486018    48.425063 
   151     1.997729    8.189522     8.189522    34.070460    45.493048    45.493048    48.395581 
   152     2.008390    8.198310     8.198310    34.164462    45.497313    45.497313    48.377132 
   153     2.019051    8.201334     8.201334    34.196622    45.498763    45.498763    48.370735 
