# k-axis, Phonon energy [meV], band-1, band-2, band-3, band-4, band-5, band-6, band-7
     1     0.000000    0.000000     0.000000     0.000000    44.265745    44.265745    44.265745 
     2     0.012562    0.383069     0.383069     0.933250    44.268658    44.268658    44.276209 
     3     0.025123    0.765808     0.765808     1.866979    44.277411    44.277411    44.307489 
     4     0.037685    1.147889     1.147889     2.801658    44.291917    44.291917    44.359275 
     5     0.050246    1.528981     1.528981     3.737739    44.312089    44.312089    44.431060 
     6     0.062808    1.908750     1.908750     4.675652    44.337790    44.337790    44.522086 
     7     0.075370    2.286863     2.286863     5.615787    44.368834    44.368834    44.631473 
     8     0.087931    2.662984     2.662984     6.558499    44.405012    44.405012    44.758107 
     9     0.100493    3.036771     3.036771     7.504090    44.446074    44.446074    44.900733 
    10     0.113055    3.407884     3.407884     8.452811    44.491773    44.491773    45.057940 
    11     0.125616    3.775977     3.775977     9.404851    44.541774    44.541774    45.228177 
    12     0.138178    4.140703     4.140703    10.360330    44.595792    44.595792    45.409770 
    13     0.150739    4.501709     4.501709    11.319302    44.653443    44.653443    45.600960 
    14     0.163301    4.858642     4.858642    12.281744    44.714404    44.714404    45.799873 
    15     0.175863    5.211148     5.211148    13.247561    44.778278    44.778278    46.004589 
    16     0.188424    5.558869     5.558869    14.216563    44.844694    44.844694    46.213111 
    17     0.200986    5.901448     5.901448    15.188505    44.913268    44.913268    46.423443 
    18     0.213548    6.238526     6.238526    16.163037    44.983601    44.983601    46.633527 
    19     0.226109    6.569744     6.569744    17.139751    45.055311    45.055311    46.841343 
    20     0.238671    6.894745     6.894745    18.118152    45.128026    45.128026    47.044819 
    21     0.251232    7.213174     7.213174    19.097644    45.201360    45.201360    47.241971 
    22     0.263794    7.524676     7.524676    20.077594    45.274942    45.274942    47.430781 
    23     0.276356    7.828903     7.828903    21.057259    45.348425    45.348425    47.609324 
    24     0.288917    8.125509     8.125509    22.035870    45.421462    45.421462    47.775693 
    25     0.301479    8.414152     8.414152    23.012535    45.493754    45.493754    47.928052 
    26     0.314041    8.694498     8.694498    23.986361    45.564968    45.564968    48.064653 
    27     0.326602    8.966217     8.966217    24.956356    45.634844    45.634844    48.183761 
    28     0.339164    9.228989     9.228989    25.921490    45.703095    45.703095    48.283800 
    29     0.351725    9.482499     9.482499    26.880699    45.769486    45.769486    48.363209 
    30     0.364287    9.726442     9.726442    27.832853    45.833807    45.833807    48.420563 
    31     0.376849    9.960522     9.960522    28.776812    45.895834    45.895834    48.454508 
    32     0.389410   10.184452    10.184452    29.711385    45.955381    45.955381    48.463782 
    33     0.401972   10.397958    10.397958    30.635359    46.012313    46.012313    48.447218 
    34     0.414533   10.600775    10.600775    31.547542    46.066480    46.066480    48.403776 
    35     0.427095   10.792649    10.792649    32.446669    46.117746    46.117746    48.332487 
    36     0.439657   10.973338    10.973338    33.331515    46.166011    46.166011    48.232497 
    37     0.452218   11.142617    11.142617    34.200850    46.211177    46.211177    48.103062 
    38     0.464780   11.300267    11.300267    35.053423    46.253194    46.253194    47.943512 
    39     0.477342   11.446090    11.446090    35.888032    46.291987    46.291987    47.753315 
    40     0.489903   11.579897    11.579897    36.703473    46.327495    46.327495    47.532023 
    41     0.502465   11.701514    11.701514    37.498557    46.359705    46.359705    47.279289 
    42     0.515026   11.810785    11.810785    38.272155    46.388568    46.388568    46.994867 
    43     0.527588   11.907567    11.907567    39.023151    46.414070    46.414070    46.678619 
    44     0.540150   11.991732    11.991732    39.750480    46.330495    46.436201    46.436201 
    45     0.552711   12.063172    12.063172    40.453099    45.950546    46.454934    46.454934 
    46     0.565273   12.121791    12.121791    41.130055    45.538920    46.470283    46.470283 
    47     0.577835   12.167511    12.167511    41.780417    45.095853    46.482234    46.482234 
    48     0.590396   12.200274    12.200274    42.403330    44.621667    46.490789    46.490789 
    49     0.602958   12.220034    12.220034    42.998000    44.116783    46.495947    46.495947 
    50     0.615519   12.226765    12.226787    43.572684    43.572697    46.497695    46.497707 
    51     0.615519   12.226786    12.226831    43.572684    43.572684    46.497695    46.497695 
    52     0.633284   12.215470    12.263361    43.544218    43.581152    46.496257    46.511171 
    53     0.651049   12.182437    12.368898    43.461722    43.606122    46.491979    46.549394 
    54     0.668814   12.128055    12.537949    43.328047    43.648052    46.484788    46.608806 
    55     0.686579   12.052964    12.762080    43.146863    43.707612    46.474548    46.684669 
    56     0.704343   11.958045    13.030596    42.921715    43.785645    46.461108    46.771951 
    57     0.722108   11.844397    13.331359    42.655530    43.883118    46.444222    46.865891 
    58     0.739873   11.713323    13.651562    42.350415    44.001035    46.423691    46.962322 
    59     0.757638   11.566301    13.978410    42.007747    44.140252    46.399255    47.057576 
    60     0.775403   11.404952    14.299630    41.628281    44.301414    46.370677    47.148491 
    61     0.793168   11.231011    14.603914    41.212328    44.484768    46.337723    47.232326 
    62     0.810932   11.046280    14.881121    40.759876    44.690066    46.300195    47.306677 
    63     0.828697   10.852591    15.122560    40.270688    44.916454    46.257930    47.369473 
    64     0.846462   10.651760    15.321014    39.744380    45.162319    46.210817    47.418965 
    65     0.864227   10.445541    15.470832    39.180494    45.425317    46.158833    47.453742 
    66     0.881992   10.235569    15.567883    38.578547    45.702338    46.101988    47.472698 
    67     0.899756   10.023322    15.609466    37.938016    45.989550    46.040395    47.475103 
    68     0.917521    9.810069    15.594217    37.258445    45.974239    46.282478    47.460561 
    69     0.935286    9.596833    15.521949    36.539423    45.903818    46.576162    47.429008 
    70     0.953051    9.384357    15.393518    35.780640    45.829492    46.865283    47.380730 
    71     0.970816    9.173077    15.210573    34.981912    45.751695    47.144374    47.316310 
    72     0.988581    8.963109    14.975457    34.143199    45.670934    47.236616    47.407919 
    73     1.006345    8.754245    14.691035    33.264652    45.587818    47.142763    47.650585 
    74     1.024110    8.545966    14.360504    32.346655    45.502978    47.036041    47.867364 
    75     1.041875    8.337463    13.987349    31.389777    45.417085    46.917925    48.053681 
    76     1.059640    8.127669    13.575190    30.394887    45.330845    46.789978    48.205494 
    77     1.077405    7.915307    13.127734    29.363064    45.244976    46.653835    48.319444 
    78     1.095169    7.698937    12.648675    28.295683    45.160199    46.511184    48.392890 
    79     1.112934    7.477018    12.141716    27.194331    45.077182    46.363685    48.423997 
    80     1.130699    7.247956    11.610457    26.060869    44.996582    46.212937    48.411723 
    81     1.148464    7.010170    11.058420    24.897329    44.918995    46.060541    48.355932 
    82     1.166229    6.762144    10.489011    23.705931    44.844967    45.907971    48.257355 
    83     1.183993    6.502475     9.905507    22.489055    44.774943    45.756617    48.117580 
    84     1.201758    6.229913     9.311044    21.249131    44.709308    45.607791    47.939123 
    85     1.219523    5.943408     8.708601    19.988675    44.648347    45.462673    47.725332 
    86     1.237288    5.642126     8.100983    18.710194    44.592246    45.322377    47.480348 
    87     1.255053    5.325480     7.490812    17.416140    44.541129    45.187871    47.209129 
    88     1.272818    4.993138     6.880497    16.108883    44.494996    45.060072    46.917305 
    89     1.290582    4.645033     6.272208    14.790665    44.453798    44.939787    46.611124 
    90     1.308347    4.281364     5.667852    13.463521    44.417410    44.827721    46.297343 
    91     1.326112    3.902590     5.069030    12.129351    44.385633    44.724508    45.983079 
    92     1.343877    3.509423     4.477002    10.789779    44.358246    44.630730    45.675683 
    93     1.361642    3.102809     3.892645     9.446216    44.334975    44.546869    45.382532 
    94     1.379406    2.683918     3.316415     8.099828    44.315535    44.473349    45.110867 
    95     1.397171    2.254114     2.748329     6.751544    44.299678    44.410529    44.867569 
    96     1.414936    1.814941     2.187944     5.402071    44.287107    44.358730    44.658947 
    97     1.432701    1.368088     1.634373     4.051912    44.277597    44.318188    44.490508 
    98     1.450466    0.915367     1.086322     2.701399    44.270964    44.289090    44.366801 
    99     1.468231    0.458682     0.542157     1.350727    44.267034    44.271584    44.291173 
   100     1.485995    0.000000     0.000000     0.000000    44.265745    44.265745    44.265745 
   101     1.485995    0.000000     0.000000     0.000000    44.265745    44.265745    44.265745 
   102     1.496874    0.298861     0.298861     0.833450    44.266799    44.266799    44.275862 
   103     1.507753    0.597202     0.597202     1.667257    44.269960    44.269960    44.306125 
   104     1.518631    0.894505     0.894505     2.501764    44.275217    44.275217    44.356238 
   105     1.529510    1.190256     1.190256     3.337301    44.282581    44.282581    44.425691 
   106     1.540389    1.483949     1.483949     4.174169    44.292016    44.292016    44.513816 
   107     1.551267    1.775087     1.775087     5.012630    44.303534    44.303534    44.619720 
   108     1.562146    2.063183     2.063183     5.852910    44.317085    44.317085    44.742398 
   109     1.573025    2.347766     2.347766     6.695178    44.332669    44.332669    44.880648 
   110     1.583903    2.628377     2.628377     7.539550    44.350237    44.350237    45.033169 
   111     1.594782    2.904576     2.904576     8.386077    44.369764    44.369764    45.198496 
   112     1.605661    3.175944     3.175944     9.234743    44.391213    44.391213    45.375093 
   113     1.616540    3.442079     3.442079    10.085464    44.414533    44.414533    45.561336 
   114     1.627418    3.702604     3.702604    10.938080    44.439664    44.439664    45.755550 
   115     1.638297    3.957168     3.957168    11.792349    44.466555    44.466555    45.955964 
   116     1.649176    4.205439     4.205439    12.647956    44.495120    44.495120    46.160841 
   117     1.660054    4.447117     4.447117    13.504497    44.525297    44.525297    46.368396 
   118     1.670933    4.681926     4.681926    14.361496    44.556986    44.556986    46.576831 
   119     1.681812    4.909619     4.909619    15.218396    44.590101    44.590101    46.784436 
   120     1.692690    5.129979     5.129979    16.074528    44.624531    44.624531    46.989461 
   121     1.703569    5.342813     5.342813    16.929171    44.660162    44.660162    47.190247 
   122     1.714448    5.547960     5.547960    17.781522    44.696873    44.696873    47.385218 
   123     1.725326    5.745288     5.745288    18.630648    44.734526    44.734526    47.572812 
   124     1.736205    5.934692     5.934692    19.475584    44.772972    44.772972    47.751628 
   125     1.747084    6.116092     6.116092    20.315239    44.812087    44.812087    47.920328 
   126     1.757962    6.289440     6.289440    21.148446    44.851687    44.851687    48.077671 
   127     1.768841    6.454706     6.454706    21.973967    44.891621    44.891621    48.222579 
   128     1.779720    6.611892     6.611892    22.790438    44.931716    44.931716    48.354084 
   129     1.790598    6.761017     6.761017    23.596419    44.971786    44.971786    48.471382 
   130     1.801477    6.902124     6.902124    24.390350    45.011658    45.011658    48.573789 
   131     1.812356    7.035274     7.035274    25.170593    45.051146    45.051146    48.660836 
   132     1.823234    7.160543     7.160543    25.935351    45.090063    45.090063    48.732223 
   133     1.834113    7.278028     7.278028    26.682765    45.128212    45.128212    48.787841 
   134     1.844992    7.387833     7.387833    27.410788    45.165418    45.165418    48.827787 
   135     1.855871    7.490074     7.490074    28.117263    45.201484    45.201484    48.852397 
   136     1.866749    7.584879     7.584879    28.799872    45.236235    45.236235    48.862241 
   137     1.877628    7.672377     7.672377    29.456123    45.269487    45.269487    48.858175 
   138     1.888507    7.752702     7.752702    30.083363    45.301052    45.301052    48.841289 
   139     1.899385    7.825991     7.825991    30.678752    45.330795    45.330795    48.812959 
   140     1.910264    7.892378     7.892378    31.239265    45.358517    45.358517    48.774885 
   141     1.921143    7.951995     7.951995    31.761717    45.384106    45.384106    48.729012 
   142     1.932021    8.004966     8.004966    32.242735    45.407390    45.407390    48.677573 
   143     1.942900    8.051411     8.051411    32.678834    45.428268    45.428268    48.623022 
   144     1.953779    8.091439     8.091439    33.066495    45.446605    45.446605    48.568012 
   145     1.964657    8.125148     8.125148    33.402183    45.462301    45.462301    48.515258 
   146     1.975536    8.152625     8.152625    33.682552    45.475281    45.475281    48.467464 
   147     1.986415    8.173941     8.173941    33.904501    45.485460    45.485460    48.427171 
   148     1.997293    8.189152     8.189152    34.065414    45.492787    45.492787    48.396560 
   149     2.008172    8.198300     8.198300    34.163235    45.497226    45.497226    48.377368 
   150     2.019051    8.201446     8.201446    34.196709    45.498726    45.498726    48.370710 
