# k-axis, Phonon energy [meV], band-1, band-2, band-3, band-4, band-5, band-6, band-7
     1     0.000000    0.000000     0.000000     0.000000 
     2     0.012199    0.170012     0.170012     0.185480 
     3     0.024398    0.339831     0.339831     0.371137 
     4     0.036597    0.509265     0.509265     0.557144 
     5     0.048797    0.678123     0.678123     0.743664 
     6     0.060996    0.846214     0.846214     0.930847 
     7     0.073195    1.013349     1.013349     1.118826 
     8     0.085394    1.179343     1.179343     1.307714 
     9     0.097593    1.344010     1.344010     1.497599 
    10     0.109792    1.507169     1.507169     1.688541 
    11     0.121991    1.668642     1.668642     1.880571 
    12     0.134190    1.828252     1.828252     2.073688 
    13     0.146390    1.985830     1.985830     2.267861 
    14     0.158589    2.141207     2.141207     2.463020 
    15     0.170788    2.294220     2.294220     2.659064 
    16     0.182987    2.444712     2.444712     2.855856 
    17     0.195186    2.592527     2.592527     3.053226 
    18     0.207385    2.737518     2.737518     3.250970 
    19     0.219584    2.879540     2.879540     3.448851 
    20     0.231783    3.018453     3.018453     3.646601 
    21     0.243983    3.154128     3.154128     3.843926 
    22     0.256182    3.286435     3.286435     4.040502 
    23     0.268381    3.415251     3.415251     4.235981 
    24     0.280580    3.540462     3.540462     4.429994 
    25     0.292779    3.661956     3.661956     4.622149 
    26     0.304978    3.779629     3.779629     4.812041 
    27     0.317177    3.893382     3.893382     4.999247 
    28     0.329376    4.003121     4.003121     5.183335 
    29     0.341576    4.108755     4.108755     5.363862 
    30     0.353775    4.210207     4.210207     5.540381 
    31     0.365974    4.307395     4.307395     5.712440 
    32     0.378173    4.400250     4.400250     5.879590 
    33     0.390372    4.488702     4.488702     6.041379 
    34     0.402571    4.572691     4.572691     6.197366 
    35     0.414770    4.652160     4.652160     6.347113 
    36     0.426969    4.727055     4.727055     6.490193 
    37     0.439169    4.797328     4.797328     6.626195 
    38     0.451368    4.862936     4.862936     6.754722 
    39     0.463567    4.923837     4.923837     6.875390 
    40     0.475766    4.979996     4.979996     6.987840 
    41     0.487965    5.031381     5.031381     7.091730 
    42     0.500164    5.077962     5.077962     7.186745 
    43     0.512363    5.119714     5.119714     7.272590 
    44     0.524563    5.156615     5.156615     7.349003 
    45     0.536762    5.188644     5.188644     7.415743 
    46     0.548961    5.215785     5.215785     7.472603 
    47     0.561160    5.238026     5.238026     7.519403 
    48     0.573359    5.255354     5.255354     7.555997 
    49     0.585558    5.267760     5.267760     7.582270 
    50     0.597757    5.275239     5.275239     7.598137 
    51     0.609956    5.277788     5.277788     7.603547 
    52     0.609956    5.277786     5.277790     7.603547 
    53     0.627209    5.272830     5.284369     7.599727 
    54     0.644461    5.258299     5.303500     7.588519 
    55     0.661713    5.234252     5.334657     7.569931 
    56     0.678965    5.200781     5.376995     7.543978 
    57     0.696217    5.158018     5.429384     7.510685 
    58     0.713469    5.106127     5.490463     7.470078 
    59     0.730722    5.045315     5.558682     7.422194 
    60     0.747974    4.975816     5.632362     7.367074 
    61     0.765226    4.897902     5.709744     7.304765 
    62     0.782478    4.811875     5.789030     7.235322 
    63     0.799730    4.718073     5.868422     7.158806 
    64     0.816982    4.616858     5.946158     7.075283 
    65     0.834235    4.508624     6.020530     6.984827 
    66     0.851487    4.393794     6.089911     6.887518 
    67     0.868739    4.272812     6.152763     6.783443 
    68     0.885991    4.146145     6.207650     6.672694 
    69     0.903243    4.014288     6.253241     6.555371 
    70     0.920496    3.877745     6.288323     6.431578 
    71     0.937748    3.737045     6.301429     6.311788 
    72     0.955000    3.592730     6.165042     6.322649 
    73     0.972252    3.445351     6.022542     6.320031 
    74     0.989504    3.295473     5.874060     6.303168 
    75     1.006756    3.143667     5.719733     6.271412 
    76     1.024009    2.990507     5.559706     6.224218 
    77     1.041261    2.836571     5.394128     6.161151 
    78     1.058513    2.682433     5.223155     6.081882 
    79     1.075765    2.528668     5.046948     5.986180 
    80     1.093017    2.375837     4.865677     5.873916 
    81     1.110269    2.224498     4.679514     5.745056 
    82     1.127522    2.075187     4.488639     5.599662 
    83     1.144774    1.928428     4.293236     5.437884 
    84     1.162026    1.784721     4.093496     5.259964 
    85     1.179278    1.644538     3.889615     5.066224 
    86     1.196530    1.508321     3.681791     4.857069 
    87     1.213782    1.376478     3.470230     4.632981 
    88     1.231035    1.249371     3.255143     4.394518 
    89     1.248287    1.127314     3.036743     4.142306 
    90     1.265539    1.010563     2.815250     3.877039 
    91     1.282791    0.899311     2.590883     3.599473 
    92     1.300043    0.793675     2.363871     3.310421 
    93     1.317295    0.693688     2.134442     3.010753 
    94     1.334548    0.599288     1.902830     2.701385 
    95     1.351800    0.510306     1.669268     2.383281 
    96     1.369052    0.426458     1.433996     2.057442 
    97     1.386304    0.347339     1.197253     1.724908 
    98     1.403556    0.272418     0.959281     1.386747 
    99     1.420809    0.201038     0.720324     1.044053 
   100     1.438061    0.132430     0.480628     0.697942 
   101     1.455313    0.065729     0.240437     0.349544 
   102     1.472565    0.000000     0.000000     0.000000 
   103     1.472565    0.000000     0.000000     0.000000 
   104     1.483130    0.091108     0.091108     0.229221 
   105     1.493695    0.182127     0.182127     0.458215 
   106     1.504259    0.272966     0.272966     0.686758 
   107     1.514824    0.363535     0.363535     0.914623 
   108     1.525389    0.453747     0.453747     1.141587 
   109     1.535954    0.543510     0.543510     1.367424 
   110     1.546518    0.632738     0.632738     1.591913 
   111     1.557083    0.721341     0.721341     1.814832 
   112     1.567648    0.809234     0.809234     2.035961 
   113     1.578213    0.896328     0.896328     2.255082 
   114     1.588777    0.982538     0.982538     2.471980 
   115     1.599342    1.067779     1.067779     2.686440 
   116     1.609907    1.151967     1.151967     2.898249 
   117     1.620472    1.235019     1.235019     3.107200 
   118     1.631036    1.316854     1.316854     3.313088 
   119     1.641601    1.397388     1.397388     3.515707 
   120     1.652166    1.476546     1.476546     3.714860 
   121     1.662731    1.554247     1.554247     3.910349 
   122     1.673295    1.630414     1.630415     4.101981 
   123     1.683860    1.704974     1.704974     4.289568 
   124     1.694425    1.777853     1.777853     4.472924 
   125     1.704990    1.848978     1.848978     4.651870 
   126     1.715554    1.918281     1.918281     4.826226 
   127     1.726119    1.985690     1.985691     4.995824 
   128     1.736684    2.051142     2.051142     5.160495 
   129     1.747249    2.114571     2.114571     5.320076 
   130     1.757813    2.175913     2.175915     5.474410 
   131     1.768378    2.235111     2.235111     5.623346 
   132     1.778943    2.292104     2.292105     5.766735 
   133     1.789508    2.346837     2.346837     5.904437 
   134     1.800072    2.399255     2.399255     6.036316 
   135     1.810637    2.449307     2.449307     6.162242 
   136     1.821202    2.496942     2.496944     6.282091 
   137     1.831767    2.542117     2.542117     6.395744 
   138     1.842331    2.584783     2.584783     6.503089 
   139     1.852896    2.624901     2.624901     6.604022 
   140     1.863461    2.662430     2.662430     6.698441 
   141     1.874026    2.697332     2.697332     6.786254 
   142     1.884590    2.729575     2.729576     6.867374 
   143     1.895155    2.759125     2.759127     6.941721 
   144     1.905720    2.785956     2.785956     7.009222 
   145     1.916285    2.810038     2.810039     7.069811 
   146     1.926849    2.831349     2.831349     7.123427 
   147     1.937414    2.849868     2.849868     7.170018 
   148     1.947979    2.865575     2.865576     7.209537 
   149     1.958544    2.878456     2.878457     7.241947 
   150     1.969108    2.888500     2.888501     7.267214 
   151     1.979673    2.895694     2.895694     7.285314 
   152     1.990238    2.900032     2.900034     7.296229 
   153     2.000803    2.901511     2.901511     7.299949 
