# k-axis, Phonon energy [meV], band-1, band-2, band-3, band-4, band-5, band-6, band-7
     1     0.000000  -42.423352    -7.837406     0.000000     0.000000     0.000000     9.488398     9.488398     9.488398    14.069883    14.069883    14.069883    14.243442    14.243442    18.377258    18.377258    18.377258    28.424585    32.642533    32.642533    32.642533    32.741234    32.741234    32.741234    33.200158    33.200158    34.454550    34.454550    34.454550    38.018021    38.018021    38.018021    39.702264    39.702264    39.702264    40.800119    40.800119 
     2     0.008876  -42.397775    -7.827216    -0.484410    -0.335593     0.462686     9.440879     9.448931     9.492205    14.019733    14.046240    14.099353    14.269255    14.314371    18.373043    18.383829    18.383916    28.418311    32.499658    32.539568    32.594565    32.743540    32.807836    32.828367    33.227446    33.275451    34.454538    34.461964    34.462026    38.017946    38.018256    38.019372    39.701967    39.702215    39.702810    40.798433    40.799686 
     3     0.017752  -42.321081    -7.796647    -0.974910    -0.684806     0.924865     9.304219     9.334222     9.503619    13.939245    14.001161    14.183510    14.323645    14.452225    18.360409    18.403343    18.403504    28.399528    32.269366    32.386923    32.484099    32.750396    32.850385    32.933452    33.297371    33.436216    34.454538    34.484355    34.487008    38.017698    38.018963    38.023389    39.701124    39.702078    39.704459    40.793400    40.798396 
     4     0.026628  -42.193370    -7.745712    -1.476985    -1.060655     1.386022     9.094302     9.154529     9.522614    13.856724    13.961388    14.311594    14.385883    14.617205    18.339394    18.434797    18.435157    28.368236    32.011128    32.220679    32.347014    32.761591    32.863329    33.020486    33.385024    33.610494    34.454588    34.521884    34.536699    38.017240    38.020017    38.029910    39.699747    39.701818    39.707223    40.785143    40.796264 
     5     0.035505  -42.014851    -7.674423    -1.994791    -1.474704     1.845621     8.833238     8.924694     9.549149    13.771264    13.936455    14.449819    14.470425    14.799778    18.310048    18.475921    18.478227    28.324483    31.737653    32.044925    32.197060    32.776779    32.860701    33.085935    33.468488    33.770602    34.454724    34.574352    34.620448    38.016521    38.021331    38.038651    39.697925    39.701446    39.711104    40.773836    40.793325 
     6     0.044381  -41.785785    -7.582795    -2.530290    -1.935716     2.303098     8.546277     8.661897     9.583179    13.682086    13.927219    14.513793    14.647964    14.994662    18.272482    18.524385    18.531055    28.268333    31.454011    31.861905    32.039532    32.795400    32.848650    33.129142    33.531755    33.911245    34.455071    34.640818    34.743275    38.015454    38.022707    38.049226    39.695730    39.700913    39.716125    40.759727    40.789643 
     7     0.053257  -41.506496    -7.470846    -3.082336    -2.447665     2.757850     8.259964     8.383644     9.624654    13.589708    13.931657    14.577420    14.834790    15.198237    18.226796    18.577337    18.591842    28.199821    31.162683    31.673319    31.876857    32.816700    32.829619    33.151074    33.565254    34.039540    34.455716    34.719421    34.900655    38.013929    38.023997    38.061178    39.693288    39.700206    39.722299    40.743175    40.785279 
     8     0.062133  -41.177415    -7.338609    -3.646039    -3.007539     3.209219     8.000217     8.105910     9.673535    13.495037    13.947341    14.640823    15.024343    15.408197    18.173150    18.631665    18.658382    28.119011    30.865081    31.480605    31.710315    32.804463    32.839550    33.154000    33.567622    34.164301    34.456807    34.807707    35.081914    38.011859    38.024988    38.073923    39.690722    39.699289    39.729651    40.724541    40.780295 
     9     0.071009  -40.799028    -7.186183    -4.212814    -3.604241     3.656479     7.789206     7.841429     9.729802    13.399052    13.972087    14.704313    15.212458    15.623278    18.111767    18.684220    18.728295    28.025939    30.562111    31.284989    31.540710    32.773369    32.862114    33.141292    33.543545    34.289657    34.458518    34.902974    35.276736    38.009107    38.025546    38.086805    39.688155    39.698148    39.738194    40.704308    40.774815 
    10     0.079885  -40.371868    -7.013938    -4.771228    -4.220171     4.098822     7.598414     7.641698     9.793468    13.302843    14.004087    14.768312    15.396803    15.843020    18.042896    18.731977    18.799013    27.920680    30.254405    31.087601    31.368527    32.736175    32.881033    33.117848    33.499309    34.416104    34.461059    35.002691    35.477770    38.005561    38.025521    38.099079    39.685750    39.696735    39.747926    40.683008    40.768914 
    11     0.088761  -39.896578    -6.823353    -5.307814    -4.835399     4.535337     7.380190     7.563146     9.864601    13.207552    14.041851    14.833252    15.576302    16.067498    17.966921    18.772109    18.867909    27.803271    29.942459    30.889443    31.194149    32.692435    32.889427    33.091762    33.440307    34.464655    34.542886    35.104689    35.680316    38.001135    38.024840    38.109977    39.683630    39.695024    39.758873    40.661212    40.762727 
    12     0.097638  -39.373816    -6.622386    -5.803312    -5.432148     4.964992     7.185831     7.550873     9.943340    13.114456    14.084140    14.899582    15.750692    16.297072    17.884313    18.802075    18.932453    27.673799    29.626645    30.691385    31.017837    32.641541    32.875851    33.075347    33.370730    34.469626    34.669085    35.207221    35.881349    37.995841    38.023426    38.118680    39.681931    39.693015    39.771036    40.639528    40.756367 
    13     0.106514  -38.804351    -6.504365    -6.154711    -5.997304     5.386616     7.011452     7.597259    10.029910    13.024892    14.129877    14.967733    15.920135    16.532249    17.795742    18.819718    18.990227    27.532325    29.307285    30.494245    30.839802    32.582787    32.833177    33.076215    33.293850    34.476296    34.793921    35.308946    36.078775    37.989753    38.021269    38.124408    39.680778    39.690635    39.784389    40.618600    40.749970 
    14     0.115390  -38.188964    -6.793076    -6.522629    -6.030338     5.798884     6.851564     7.692880    10.124657    12.940251    14.178154    15.038092    16.084868    16.773539    17.702199    18.823263    19.039038    27.378999    28.984652    30.298716    30.660242    32.515379    32.766798    33.089109    33.212258    34.485074    34.916810    35.408837    36.270969    37.983157    38.018380    38.126429    39.680258    39.687845    39.798956    40.599086    40.743684 
    15     0.124266  -37.528523    -7.156314    -7.003705    -5.755888     6.200307     6.700154     7.828503    10.228056    12.861946    14.228143    15.111042    16.244802    17.021351    17.605210    18.811337    19.076939    27.213982    28.658994    30.105369    30.479293    32.438636    32.684426    33.106193    33.128039    34.496394    35.037244    35.506136    36.456505    37.976574    38.014810    38.124148    39.680444    39.684535    39.814702    40.581580    40.737634 
    16     0.133142  -36.823932    -7.481091    -7.438665    -5.438513     6.551385     6.589242     7.995941    10.340730    12.791339    14.279111    15.186918    16.398921    17.275993    17.507439    18.782920    19.102268    27.037521    28.330546    29.914675    30.297129    32.352023    32.590623    33.042778    33.122559    34.510726    35.154827    35.600274    36.633858    37.970908    38.010607    38.117093    39.680580    39.681374    39.831625    40.566690    40.731955 
    17     0.142018  -36.076122    -7.827170    -7.756090    -5.083438     6.399973     6.963912     8.188210    10.463441    12.729733    14.330340    15.265992    16.543755    17.414057    17.537591    18.737420    19.113699    26.849927    27.999494    29.726982    30.113887    32.255405    32.487831    32.957529    33.135254    34.528579    35.269198    35.690792    36.801120    37.967623    38.005895    38.105055    39.675794    39.683060    39.849726    40.554912    40.726810 
    18     0.150894  -35.286097    -8.169708    -7.978304    -4.686151     6.241381     7.322434     8.399387    10.597044    12.678232    14.381159    15.348550    16.669595    17.336644    17.806144    18.674599    19.110166    26.651559    27.666063    29.542537    29.929677    32.149043    32.377513    32.872776    33.142210    34.550374    35.380049    35.777343    36.955723    37.968999    38.000800    38.088057    39.669943    39.685490    39.869005    40.546642    40.722297 
    19     0.159771  -34.454860    -8.467174    -8.146654    -4.236945     6.071886     7.662837     8.624444    10.742387    12.637765    14.430850    15.434803    16.752934    17.300640    18.081479    18.594620    19.090961    26.442864    27.330436    29.361464    29.744662    32.033605    32.260737    32.788544    33.141763    34.576547    35.487056    35.859603    37.094035    37.978285    37.995704    38.066422    39.662752    39.688602    39.889449    40.542154    40.718541 
    20     0.168647  -33.583454    -8.720623    -8.260873    -3.718409     5.888593     7.983021     8.859192    10.900133    12.609014    14.478645    15.524924    16.763447    17.338442    18.363261    18.497990    19.055689    26.224361    26.992814    29.183789    29.558977    31.910059    32.138282    32.704436    33.132502    34.607343    35.589934    35.937277    37.211295    37.988613    38.002350    38.040759    39.653949    39.692371    39.911084    40.541572    40.715652 
    21     0.177523  -32.672933    -8.931124    -8.321184    -3.096670     5.689425     8.280640     9.100406    11.070485    12.592376    14.523699    15.619087    16.708251    17.445127    18.385614    18.651055    19.004324    25.996610    26.653406    29.009460    29.372759    31.779583    32.010867    32.619882    33.113235    34.642938    35.688399    36.010078    37.302470    37.983963    38.011946    38.041986    39.643274    39.696710    39.933896    40.544869    40.713730 
    22     0.186399  -31.724350    -9.099688    -8.328220    -2.289038     5.473109     8.552987     9.346038    11.252886    12.588024    14.565046    15.717366    16.620511    17.589762    18.258770    18.937412    18.944293    25.760205    26.312424    28.838368    29.186181    31.643353    31.879114    32.534212    33.082960    34.683318    35.782141    36.077672    37.364708    37.979116    37.981112    38.102885    39.630492    39.701607    39.957886    40.551825    40.712850 
    23     0.195275  -30.738783    -9.227223    -8.283058    -0.878532     5.239188     8.797084     9.595200    11.445754    12.595884    14.601509    15.819836    16.521724    17.752795    18.119206    18.856317    19.242304    25.515791    25.970091    28.670375    28.999406    31.502574    31.743604    32.446731    33.040819    34.728323    35.870885    36.139711    37.399683    37.949584    37.974900    38.182827    39.615478    39.707037    39.983054    40.562090    40.713098 
    24     0.204151  -29.717237    -9.314506    -8.187322     1.955873     4.988133     9.010101     9.847705    11.646392    12.615709    14.631710    15.926508    16.422850    17.923826    17.969066    18.764547    19.544331    25.264049    25.626629    28.505296    28.812630    31.358373    31.604895    32.356846    32.986156    34.777667    35.954324    36.195849    37.412788    37.918837    37.971689    38.276333    39.598109    39.713100    40.009387    40.575158    40.714548 
    25     0.213027  -28.660754    -9.362154    -8.043390     2.926788     4.721859     9.189905    10.103274    11.851159    12.647113    14.654027    16.037297    16.330633    17.811054    18.090343    18.672479    19.849533    25.005687    25.282324    28.342944    28.626065    31.211791    31.463545    32.263985    32.918401    34.830978    36.032183    36.245739    37.410110    37.890383    37.969842    38.377141    39.578383    39.719919    40.036824    40.590407    40.717313 
    26     0.221904  -27.570288    -9.370601    -7.854679     3.665724     4.447538     9.335248    10.360947    12.055898    12.689626    14.666474    16.152052    16.250418    17.648367    18.212885    18.619502    20.156941    24.741461    24.937449    28.183146    28.439933    31.063797    31.320138    32.167690    32.837144    34.887798    36.104191    36.289070    37.396621    37.865699    37.969730    38.480057    39.556340    39.727792    40.065315    40.607107    40.721516 
    27     0.230780  -26.446744    -9.340053    -7.626032     4.085090     4.379560     9.445404    10.619009    12.256560    12.742739    14.666809    16.186779    16.270491    17.484788    18.205756    18.692241    20.465515    24.472226    24.592313    28.025741    28.254509    30.915306    31.175193    32.067551    32.742052    34.947668    36.170099    36.325632    37.375755    37.846122    37.971714    38.581237    39.532064    39.737140    40.094785    40.624465    40.727318 
    28     0.239656  -25.291003    -9.270423    -7.364206     3.824329     4.929349     9.519602    10.875208    12.449910    12.805907    14.652527    16.143622    16.392040    17.324717    18.092463    18.868839    20.773928    24.199012    24.247265    27.870592    28.070076    30.767150    31.029305    31.963234    32.632937    35.010117    36.229746    36.355399    37.349830    37.832782    37.976140    38.677855    39.505694    39.748596    40.125135    40.641623    40.734918 
    29     0.248532  -24.103807    -9.161238    -7.078372     3.530851     5.481220     9.556635    11.126981    12.634244    12.878534    14.621147    16.123673    16.515562    17.173338    17.939571    19.084837    21.080530    23.902675    23.923243    27.717626    27.886970    30.620134    30.883046    31.854467    32.509713    35.074686    36.282970    36.378546    37.320348    37.826434    37.983306    38.767629    39.477352    39.762952    40.156242    40.657790    40.744502 
    30     0.257408  -22.885902    -9.011468    -6.780506     3.248477     6.017605     9.554827    11.371560    12.809824    12.959964    14.570539    16.127814    16.637620    17.037877    17.769409    19.320708    21.382769    23.558952    23.647152    27.566792    27.705538    30.475015    30.736998    31.741062    32.372418    35.140953    36.329748    36.395494    37.288336    37.827501    37.993460    38.848674    39.447213    39.781165    40.187956    40.672358    40.756069 
    31     0.266284  -21.637957    -8.819278    -6.485324     2.996081     6.545272     9.512311    11.606024    12.979094    13.049279    14.499659    16.154433    16.739680    16.939871    17.590977    19.571123    21.675857    23.216544    23.375251    27.418115    27.526188    30.332488    30.591767    31.622835    32.221261    35.208522    36.370103    36.406888    37.254477    37.836006    38.006776    38.919330    39.415436    39.804287    40.220129    40.685041    40.769310 
    32     0.275160  -20.360702    -8.581587    -6.209254     2.794779     7.068795     9.427445    11.827404    13.145054    13.146095    14.409328    16.198557    16.736730    16.966055    17.411466    19.834122    21.947609    22.875996    23.119369    27.271695    27.349368    30.193271    30.447938    31.499685    32.056566    35.277021    36.404223    36.413571    37.219255    37.851652    38.023327    38.978308    39.382173    39.833187    40.252599    40.695939    40.783581 
    33     0.284037  -19.055143    -8.293320    -5.968020     2.664567     7.589858     9.299241    12.032900    13.244535    13.315551    14.303312    16.250641    16.663569    17.081580    17.240398    20.108601    22.155945    22.537915    22.921298    27.127704    27.175561    30.057996    30.306155    31.371589    31.878866    35.346140    36.416472    36.432329    37.182953    37.873869    38.043127    39.024813    39.347595    39.868435    40.285181    40.705337    40.798123 
    34     0.292913  -17.722941    -7.946053    -5.772995     2.615623     8.107546     9.127643    12.220183    13.341810    13.491528    14.190267    16.293625    16.592454    17.093916    17.212379    20.393607    22.179724    22.203119    22.901821    26.986404    27.005311    29.927309    30.167024    31.238522    31.688854    35.415581    36.416559    36.454819    37.145797    37.901963    38.066051    39.058709    39.311814    39.910005    40.317688    40.713544    40.812195 
    35     0.301789  -16.367306    -7.525473    -5.627880     2.640769     8.618907     8.913618    12.387601    13.422571    13.676494    14.088368    16.300122    16.532237    16.998600    17.346327    20.687600    21.872998    21.999668    23.079819    26.839190    26.848191    29.801816    30.031155    31.100581    31.487411    35.485097    36.414711    36.472126    37.107871    37.935152    38.091925    39.080566    39.275004    39.957266    40.349948    40.720747    40.825139 
    36     0.310665  -14.994811    -7.006335    -5.527850     2.717151     8.659118     9.119695    12.534043    13.455686    13.870882    14.033197    16.246624    16.482100    16.978044    17.480139    20.985549    21.552423    21.744889    23.325734    26.677843    26.713574    29.682114    29.899153    30.957880    31.275691    35.554451    36.411748    36.484735    37.069251    37.972656    38.120515    39.091452    39.237290    40.009139    40.381774    40.727108    40.836470 
    37     0.319541  -13.618757    -6.341831    -5.461824     2.816202     8.367116     9.605080    12.658482    13.410123    14.060200    14.073429    16.143820    16.439512    17.022826    17.611805    21.161588    21.367036    21.468327    23.586079    26.521913    26.583221    29.568771    29.771627    30.810629    31.055068    35.623434    36.408314    36.493203    37.029950    38.013743    38.151535    39.092692    39.198769    40.064335    40.412992    40.732637    40.845794 
    38     0.328417  -12.264786    -5.438812    -5.416139     2.912879     8.042057    10.070202    12.759402    13.302372    14.156780    14.281814    16.022605    16.401711    17.104690    17.739579    20.886340    21.184835    21.646040    23.845259    26.372133    26.458026    29.462334    29.649148    30.659126    30.827255    35.691883    36.404942    36.498063    36.989929    38.057756    38.184687    39.085674    39.159567    40.121527    40.443429    40.737348    40.852811 
    39     0.337293  -10.976020    -5.377487    -4.080946     2.989112     7.691806    10.510495    12.834658    13.167643    14.290927    14.493200    15.906572    16.366153    17.203762    17.861675    20.581077    20.900214    21.967979    24.096480    26.229246    26.339067    29.363336    29.532222    30.503754    30.594371    35.759626    36.402016    36.499861    36.949152    38.104112    38.219674    39.071640    39.119769    40.179575    40.472924    40.741192    40.857274 
    40     0.346170   -9.806378    -5.334285    -1.123735     3.032935     7.335422    10.921783    12.881869    13.026517    14.444401    14.704499    15.809744    16.330720    17.310001    17.976183    20.281343    20.617738    22.297245    24.335055    26.094009    26.227721    29.272273    29.421322    30.345022    30.359107    35.826550    36.399821    36.499092    36.907569    38.152316    38.256199    39.051667    39.079488    40.237486    40.501328    40.744105    40.858998 
    41     0.355046   -8.791763    -5.276869     3.036105     3.920173     7.043086    11.300179    12.889296    12.899425    14.608439    14.912389    15.740067    16.293799    17.418669    18.081156    19.991155    20.339911    22.629958    24.556471    25.967239    26.125661    29.189640    29.316819    30.124884    30.183625    35.892508    36.398544    36.496241    36.865118    38.201920    38.293988    39.026648    39.038785    40.294529    40.528516    40.746002    40.857832 
    42     0.363922   -7.925252    -5.197087     2.991709     5.243470     7.158408    11.641848    12.761869    12.887647    14.777932    15.112976    15.700926    16.254299    17.527734    18.174551    19.713378    20.069052    22.963762    24.755620    25.849706    26.034858    29.115897    29.218999    29.896103    30.020443    35.957423    36.398296    36.491703    36.821713    38.252554    38.332831    38.997314    38.997735    40.350072    40.554354    40.746808    40.853642 
    43     0.372798   -7.170065    -5.087711     2.891985     5.278070     8.043938    11.942634    12.648142    12.849597    14.949074    15.301227    15.691863    16.211761    17.636564    18.254418    19.451185    19.807528    23.296363    24.926563    25.742191    25.957221    29.051514    29.127998    29.678444    29.856616    36.021199    36.399127    36.485888    36.777291    38.303894    38.372492    38.956400    38.964273    40.403669    40.578741    40.746424    40.846352 
    44     0.381674   -6.486698    -4.941798     2.725839     4.840769     9.058196    12.197533    12.551165    12.790806    15.118592    15.469815    15.710485    16.166397    17.745332    18.319062    19.208519    19.557870    23.625269    25.063239    25.645449    25.893632    28.996914    29.044014    29.478960    29.693681    36.083759    36.401049    36.479107    36.731803    38.355643    38.412810    38.914855    38.928034    40.454959    40.601578    40.744775    40.835875 
    45     0.390550   -5.845097    -4.751989     2.474713     4.252743     9.941995    12.397727    12.476033    12.718352    15.283337    15.606714    15.756122    16.119086    17.854533    18.367315    18.990277    19.322779    23.947605    25.161716    25.560138    25.841399    28.952529    28.967766    29.305574    29.533623    36.145055    36.404012    36.471655    36.685161    38.407553    38.453637    38.873123    38.889005    40.503683    40.622816    40.741762    40.822163 
    46     0.399426   -5.224549    -4.509637     2.102223     3.552108    10.676938    12.409654    12.550867    12.639699    15.440048    15.700232    15.826679    16.071304    17.964690    18.398967    18.802249    19.104971    24.259898    25.223917    25.486779    25.791088    28.902156    28.918806    29.165006    29.379131    36.205024    36.407979    36.463795    36.637317    38.459389    38.494848    38.831267    38.847546    40.549630    40.642380    40.737299    40.805165 
    47     0.408303   -4.610164    -4.203419     1.512789     2.698628    11.275686    12.372937    12.561815    12.629148    15.585067    15.762978    15.896592    16.024713    18.076234    18.415456    18.650423    18.906925    24.557934    25.258768    25.425707    25.726730    28.854175    28.896217    29.059313    29.233715    36.263654    36.412864    36.455749    36.588221    38.510940    38.536344    38.789313    38.803992    40.592651    40.660233    40.731335    40.784858 
    48     0.417179   -3.989158    -3.816695    -0.544040     1.483871    11.752529    12.356697    12.490737    12.633897    15.713771    15.813128    15.937803    15.980576    18.189874    18.420862    18.539325    18.730167    24.836504    25.278505    25.376896    25.631712    28.833917    28.885319    28.984540    29.101987    36.320920    36.418579    36.447690    36.537836    38.561983    38.578063    38.747308    38.758615    40.632610    40.676350    40.723785    40.761239 
    49     0.426055   -3.346642    -3.321329    -1.833647    -1.597708    12.118938    12.361463    12.431363    12.556632    15.820282    15.857154    15.939117    15.939142    18.307333    18.423031    18.469375    18.574336    25.089386    25.293928    25.339838    25.495582    28.849154    28.886906    28.934180    28.989723    36.376798    36.425014    36.439830    36.486124    38.612331    38.619931    38.705279    38.711664    40.669432    40.690720    40.714610    40.734298 
    50     0.434931   -2.646049    -2.646039    -2.646038    -2.646027    12.386934    12.386935    12.386948    12.386948    15.898526    15.898526    15.898526    15.898526    18.434276    18.434289    18.434289    18.434289    25.312848    25.312848    25.312848    25.312848    28.902478    28.902478    28.902478    28.902478    36.432168    36.432168    36.432168    36.432168    38.662568    38.662568    38.662580    38.662580    40.703539    40.703551    40.703551    40.703551 
    51     0.434931   -2.646030    -2.646017    -2.645977    -2.645924    12.386935    12.386946    12.386950    12.386962    15.898526    15.898526    15.898551    15.898551    18.434289    18.434289    18.434289    18.434301    25.312848    25.312848    25.312860    25.312860    28.902478    28.902478    28.902478    28.902478    36.432155    36.432168    36.432168    36.432168    38.662555    38.662568    38.662580    38.662580    40.703539    40.703539    40.703551    40.703551 
    52     0.450305   -3.282621    -3.233040    -1.710173    -1.430463    12.131491    12.369021    12.445571    12.566266    15.824472    15.861790    15.939799    15.947808    18.305064    18.420502    18.468668    18.572353    25.096366    25.296867    25.350910    25.503541    28.847332    28.884935    28.932456    28.987838    36.355784    36.403950    36.419547    36.465754    38.620018    38.627692    38.711776    38.718433    40.674168    40.695307    40.719198    40.738737 
    53     0.465679   -3.745663    -3.522667     1.142451     2.046020    11.809705    12.375844    12.556013    12.667892    15.729640    15.830696    15.950064    16.005272    18.177774    18.415059    18.537564    18.720645    24.863879    25.281208    25.423041    25.668497    28.826887    28.877273    28.978093    29.094349    36.237755    36.336319    36.369756    36.460162    38.593337    38.609616    38.769240    38.783374    40.651728    40.694216    40.741700    40.777989 
    54     0.481053   -4.096874    -3.594860     2.372363     3.414660    11.424908    12.398459    12.695949    12.722914    15.619831    15.800916    15.925095    16.077503    18.040379    18.420502    18.642947    18.880183    24.620432    25.258681    25.508786    25.830973    28.838356    28.878723    29.045030    29.215949    36.077101    36.233948    36.285127    36.421778    38.582006    38.607248    38.829606    38.855134    40.636243    40.699584    40.770910    40.820651 
    55     0.496427   -4.357184    -3.475397     3.151105     4.497314    10.987353    12.432082    12.662338    12.933941    15.501418    15.766685    15.874982    16.161351    17.887252    18.441802    18.778817    19.046514    24.375125    25.228182    25.569189    26.025658    28.866809    28.897296    29.138685    29.345992    35.874431    36.104675    36.168499    36.357470    38.584262    38.618357    38.887666    38.930328    40.628010    40.710606    40.806194    40.865432 
    56     0.511801   -4.541110    -3.166625     3.755710     5.447232    10.512786    12.458304    12.585173    13.181913    15.380339    15.711638    15.825154    16.252885    17.718701    18.479765    18.935775    19.212933    24.137307    25.189922    25.584414    26.270928    28.887526    28.948970    29.261264    29.478712    35.631257    35.956667    36.024621    36.273572    38.596982    38.639780    38.939824    39.005559    40.626994    40.726203    40.846649    40.911032 
    57     0.527175   -4.662513    -2.646347     4.250520     6.297492    10.028069    12.364135    12.583115    13.450925    15.262471    15.623104    15.800396    16.347569    17.539351    18.532047    19.102838    19.371206    23.916535    25.145066    25.561130    26.561364    28.909694    29.018449    29.408651    29.609300    35.349996    35.797105    35.860384    36.175132    38.616807    38.668358    38.983899    39.077988    40.632908    40.745122    40.891108    40.956210 
    58     0.542549   -4.739157    -1.822983     4.663060     7.035622     9.586177    12.161658    12.647696    13.724772    15.153530    15.517969    15.797085    16.440901    17.356072    18.595202    19.268500    19.512394    23.722494    25.095796    25.512604    26.885906    28.939238    29.097523    29.570805    29.734024    35.033648    35.631678    35.684544    36.065856    38.640747    38.701262    39.018874    39.145420    40.645182    40.766025    40.938134    40.999839 
    59     0.557922   -4.797490     0.789583     5.009344     7.581951     9.307517    11.907380    12.725654    13.986506    15.058487    15.414657    15.810574    16.528319    17.177268    18.665524    19.421368    19.628290    23.564209    25.045584    25.450168    27.234811    28.978019    29.184346    29.733392    29.851446    34.685587    35.463859    35.508256    35.948609    38.666510    38.736200    39.044600    39.206357    40.662973    40.787585    40.986089    41.040988 
    60     0.573296   -4.876282     2.109962     5.302344     7.786460     9.385406    11.618724    12.804642    14.219452    14.980665    15.328094    15.840317    16.604145    17.013713    18.739007    19.550195    19.714109    23.448585    24.998918    25.382376    27.599771    29.027251    29.278385    29.875647    29.966536    34.309469    35.295519    35.344553    35.825596    38.692484    38.771422    39.061474    39.259916    40.685190    40.808538    41.033264    41.078901 
    61     0.588670   -5.021589     2.822923     5.555091     7.740061     9.754205    11.321568    12.873662    14.409873    14.921415    15.271745    15.885867    16.656093    16.883820    18.810692    19.643342    19.772405    23.378177    24.960596    25.315563    27.973211    29.087927    29.379355    29.976244    30.085755    33.909596    35.134655    35.200575    35.698652    38.717578    38.805653    39.070239    39.305689    40.710569    40.827742    41.077946    41.113033 
    62     0.604044   -5.263118     3.373235     5.776889     7.674565    10.124885    11.091076    12.919423    14.552785    14.881915    15.252342    15.943952    16.652039    16.826702    18.873984    19.692190    19.812723    23.349451    24.934709    25.254602    28.347333    29.160815    29.486969    30.039536    30.191362    33.491486    34.994111    35.078529    35.569329    38.740960    38.838148    39.071751    39.343640    40.737770    40.844170    41.118550    41.142999 
    63     0.619418   -5.585593     3.895827     5.967224     7.639577    10.215429    11.132386    12.927618    14.656593    14.865289    15.262607    16.006487    16.607121    16.834451    18.920637    19.706373    19.837284    23.352774    24.923848    25.203237    28.712925    29.246584    29.600808    30.074647    30.263506    33.063210    34.884798    34.981304    35.438902    38.761963    38.868610    39.066867    39.374027    40.765393    40.856977    41.153673    41.168538 
    64     0.634792   -5.933493     4.446188     6.119053     7.577152    10.051745    11.426628    12.887014    14.736374    14.873013    15.286387    16.062155    16.585536    16.847419    18.943103    19.710154    19.840966    23.374668    24.928845    25.163353    29.056759    29.346488    29.719680    30.085359    30.291686    32.638231    34.814650    34.911826    35.308500    38.779903    38.897163    39.056304    39.397211    40.792048    40.865457    41.182102    41.189553 
    65     0.650166   -6.244428     5.028577     6.226494     7.406837     9.885212    11.756560    12.793422    14.802034    14.897462    15.311232    16.103403    16.603984    16.844778    18.940511    19.720532    19.825109    23.401386    24.949462    25.133151    29.353418    29.468025    29.838911    30.075614    30.270386    32.241668    34.787759    34.872016    35.179114    38.794049    38.924376    39.040694    39.413676    40.816435    40.869114    41.202695    41.206179 
    66     0.665540   -6.470810     5.628523     6.286994     7.082707     9.793909    12.059458    12.649729    14.856871    14.919270    15.331627    16.130381    16.654085    16.819771    18.923067    19.739959    19.798106    23.422339    24.984809    25.105504    29.544918    29.641845    29.941988    30.053347    30.196569    31.922432    34.803678    34.862333    35.051601    38.803694    38.951057    39.020473    39.423892    40.837289    40.867577    41.215217    41.217944 
    67     0.680914   -6.581305     6.219093     6.310888     6.612954     9.765820    12.320863    12.462606    14.899557    14.917311    15.343616    16.144167    16.721815    16.768382    18.908339    19.760850    19.772293    23.432146    25.033149    25.067876    29.681172    29.746249    30.007227    30.033585    30.090938    31.756473    34.857770    34.881116    34.927360    38.808207    38.978147    38.995913    39.428343    40.853369    40.860709    41.221552    41.222594 
    68     0.696288   -6.555209     6.029193     6.252743     6.832266     9.768353    12.239073    12.525873    14.883923    14.923535    15.339624    16.139741    16.687844    16.798187    18.913434    19.759573    19.775380    23.430261    25.004373    25.091544    29.570643    29.803193    30.001226    30.020418    30.131727    31.789080    34.803666    34.929419    34.942771    38.807203    38.967174    39.006451    39.427438    40.848459    40.863448    41.219407    41.222408 
    69     0.711662   -6.377842     5.357930     6.158702     7.409828     9.782347    11.984633    12.644819    14.831145    14.915773    15.310625    16.103961    16.577205    16.884229    18.949475    19.754415    19.795465    23.418495    24.898804    25.157005    29.196447    29.861662    29.970876    30.058691    30.266915    31.975669    34.685327    35.000199    35.050001    38.800533    38.934282    39.036616    39.421586    40.830978    40.866188    41.208770    41.217796 
    70     0.727036   -6.039521     4.611846     6.010249     7.961817     9.805856    11.702309    12.634083    14.784987    14.851825    15.255702    16.015860    16.437777    16.994236    19.016908    19.735434    19.853091    23.397964    24.738089    25.228479    28.740225    29.859604    29.935169    30.194709    30.407645    32.245685    34.570633    35.092117    35.171390    38.788234    38.897225    39.069061    39.411159    40.808451    40.860051    41.191710    41.207592 
    71     0.742410   -5.541617     3.788836     5.821404     8.475337     9.846438    11.390877    12.457709    14.679480    14.776122    15.189187    15.856943    16.271272    17.151616    19.094470    19.722044    19.952498    23.366994    24.515557    25.308558    28.247182    29.862195    29.923428    30.357904    30.548622    32.554768    34.459981    35.201790    35.299747    38.770406    38.855977    39.103986    39.396505    40.781175    40.843376    41.169741    41.191723 
    72     0.757784   -4.921447     2.852977     5.645753     8.929749     9.906618    11.040771    12.122136    14.360033    14.785594    15.130581    15.630493    16.077739    17.374706    19.124039    19.771611    20.086657    23.321493    24.233453    25.403626    27.738033    29.891156    29.942373    30.532579    30.689736    32.880438    34.353581    35.326105    35.429182    38.747122    38.810575    39.141391    39.377957    40.749436    40.814489    41.144660    41.170138 
    73     0.773157   -4.313870     1.576386     5.624058     9.288676     9.922248    10.645719    11.714160    13.840396    14.787938    15.099239    15.364680    15.859348    17.666505    19.056160    19.928421    20.242264    23.257842    23.904212    25.521952    27.223479    29.952874    29.992126    30.714607    30.831272    33.211006    34.251558    35.462198    35.555183    38.718346    38.761120    39.181065    39.355802    40.713557    40.772100    41.118178    41.142887 
    74     0.788531   -3.958369    -1.858924     5.950673     9.274318     9.730094    10.358895    11.454904    13.101239    14.748029    15.046151    15.157956    15.622906    18.016699    18.909876    20.163673    20.398181    23.178135    23.551266    25.670728    26.709867    30.046417    30.070717    30.901866    30.973489    33.539702    34.153973    35.607502    35.674551    38.683880    38.707783    39.222573    39.330312    40.673833    40.715850    41.091410    41.110131 
    75     0.803905   -3.925755    -3.326381     6.621375     8.013420     9.882002    10.126587    11.534848    12.169510    14.674682    14.776408    15.211280    15.377946    18.407658    18.715822    20.430156    20.522521    23.096135    23.211002    25.853686    26.202144    30.167037    30.174984    31.092684    31.116587    33.861901    34.060901    35.759725    35.785364    38.643525    38.650802    39.265247    39.301660    40.630527    40.646446    41.064817    41.072194 
    76     0.819279   -4.667221    -4.043706     5.605587     7.410179     9.793592    10.059596    11.146185    11.832960    14.489605    14.597864    15.135503    15.312993    18.490290    18.816197    20.573092    20.682827    22.935073    23.042018    25.706199    26.070601    30.300972    30.308783    31.260751    31.285448    33.972367    34.173674    35.886953    35.916733    38.590226    38.597193    39.269772    39.308194    40.565549    40.583812    41.029544    41.038297 
    77     0.834653   -6.447331    -4.198756    -2.075213     8.084492     9.295301     9.928990    10.538296    12.190839    14.205120    14.547540    14.909984    15.441052    18.242231    19.203932    20.523265    20.865561    22.783123    23.058581    25.231629    26.318313    30.444405    30.465754    31.406142    31.478547    33.888470    34.470916    35.980037    36.076605    38.525620    38.545357    39.234202    39.350359    40.475577    40.533860    40.982829    41.011629 
    78     0.850027   -9.298346    -5.258987    -4.124560     8.066012     8.649477     9.593859    10.732992    12.514591    13.929996    14.538564    14.744582    15.592828    17.978464    19.472026    20.443992    20.918513    22.791479    23.177763    24.796793    26.592185    30.601041    30.632730    31.552935    31.670307    33.809321    34.748482    36.067084    36.237470    38.455633    38.489603    39.193847    39.390566    40.379617    40.480735    40.932865    40.984664 
    79     0.865401  -12.258702    -6.365991    -4.152131     6.753772     8.438622     9.642241    11.064790    12.724377    13.673035    14.449001    14.829607    15.766995    17.707072    19.432935    20.534150    20.826359    22.931080    23.397952    24.440413    26.887133    30.766926    30.805311    31.701289    31.858930    33.735169    34.999356    36.152717    36.397552    38.378121    38.432523    39.146648    39.427611    40.281548    40.424497    40.880682    40.957413 
    80     0.880775  -14.993484    -7.162847    -4.096439     5.046253     8.060669     9.753359    11.409572    12.776412    13.446995    14.314545    15.156468    15.961173    17.440663    19.135160    20.596698    20.781242    23.111521    23.690941    24.244525    27.198236    30.938502    30.979949    31.851330    32.042482    33.666372    35.214114    36.243916    36.555057    38.291297    38.376782    39.089406    39.460516    40.186133    40.365260    40.827407    40.930063 
    81     0.896149  -17.540132    -7.797422    -4.047595     2.668760     7.603517     9.789032    11.691201    12.687245    13.267608    14.204909    15.605040    16.171307    17.201419    18.752768    20.328616    20.925382    23.263111    24.007896    24.323227    27.520944    31.112570    31.153918    32.003106    32.218893    33.603564    35.382231    36.348407    36.708160    38.194531    38.324375    39.017932    39.488671    40.098653    40.303220    40.774270    40.902961 
    82     0.911523  -19.937794    -8.304917    -4.390571    -2.416512     7.097766     9.743643    11.864493    12.498610    13.135681    14.125612    16.077255    16.394024    17.030885    18.362244    20.013558    20.891299    23.452032    24.324628    24.652295    27.851165    31.286018    31.325531    32.156544    32.385783    33.547761    35.496677    36.469498    36.854902    38.088528    38.276742    38.927972    39.512203    40.023881    40.238788    40.722533    40.876553 
    83     0.926897  -22.209480    -8.696860    -5.522105    -2.864057     6.553039     9.629357    11.911352    12.255905    13.026827    14.070069    16.418064    16.653762    17.015077    18.004760    19.678341    20.668644    23.755188    24.672293    25.084501    28.185254    31.455338    31.494478    32.311395    32.540250    33.500685    35.558766    36.600607    36.992979    37.975756    38.234886    38.816960    39.532089    39.964581    40.172719    40.673449    40.851360 
    84     0.942271  -24.367414    -8.979037    -6.531611    -2.689188     5.978685     9.459710    11.790567    12.028217    12.920588    14.028325    16.544796    16.900135    17.189120    17.765367    19.339727    20.322083    24.149940    25.051374    25.554373    28.519925    31.616636    31.661740    32.467114    32.678487    33.465128    35.576569    36.725480    37.118967    37.861818    38.199391    38.685827    39.549967    39.920357    40.106117    40.628258    40.827965 
    85     0.957645  -26.417200    -9.157457    -7.247742    -2.485747     5.395445     9.248181    11.474811    11.854363    12.824070    13.994776    16.634149    16.983140    17.260930    17.869857    19.020788    19.910506    24.589858    25.455983    26.041714    28.852340    31.767470    31.827575    32.622882    32.795326    33.445613    35.559572    36.821775    37.225826    37.758766    38.170243    38.540274    39.567436    39.888271    40.040556    40.588262    40.806926 
    86     0.973019  -28.360276    -9.241327    -7.697483    -2.460033     4.851553     9.007745    11.054255    11.652884    12.758088    13.969521    16.740685    16.793103    17.417615    18.084553    18.788946    19.469311    25.040712    25.885251    26.537448    29.179970    31.907530    31.990696    32.777374    32.884616    33.447969    35.515410    36.863692    37.295825    37.690899    38.146501    38.392143    39.585339    39.864331    39.978045    40.554887    40.788751 
    87     0.988393  -30.195465    -9.242157    -7.894903    -2.763067     4.428784     8.750712    10.561642    11.416495    12.731494    13.953813    16.503114    16.917183    17.566317    18.080797    18.799546    19.020255    25.480208    26.340481    27.036195    29.500706    32.037213    32.149477    32.923844    32.947462    33.476237    35.449725    36.830391    37.298825    37.686052    38.125127    38.261989    39.603415    39.844655    39.921076    40.529744    40.773885 
    88     1.003766  -31.919903    -9.164402    -7.847779    -3.348834     4.185156     8.489027    10.014256    11.165064    12.740346    13.947390    16.236458    17.087122    17.544484    18.023357    18.576196    18.969907    25.895492    26.821213    27.534297    29.812789    32.156804    32.302443    32.966964    33.080517    33.527502    35.366721    36.722665    37.221734    37.731540    38.098880    38.178302    39.620499    39.825537    39.872923    40.514556    40.762616 
    89     1.019140  -33.529684    -8.995142    -7.572737    -4.036525     4.084152     8.234894     9.433460    10.914272    12.777862    13.948717    15.980167    17.228769    17.339731    18.013563    18.240297    19.126407    26.281355    27.323270    28.029039    30.114916    32.266539    32.447773    32.975890    33.222301    33.592691    35.269868    36.559966    37.069884    37.790567    38.073018    38.145658    39.635055    39.802973    39.837737    40.510825    40.755078 
    90     1.034514  -35.020321    -8.710876    -7.092042    -4.703956     4.043727     8.001524     8.844790    10.673731    12.838501    13.955710    15.736124    16.989091    17.433150    17.675382    18.287484    19.229546    26.637053    27.840106    28.518326    30.406231    32.366554    32.582502    32.975754    33.355889    33.662690    35.162340    36.360966    36.855659    37.844424    38.065902    38.132975    39.646002    39.777966    39.814553    40.519305    40.751234 
    91     1.049888  -36.387076    -8.291217    -6.426185    -5.304009     4.002107     7.803651     8.281109    10.449530    12.917960    13.966322    15.504183    16.674789    17.230703    17.633539    18.383655    19.270472    26.963046    28.365211    29.000435    30.686339    32.456935    32.700680    32.977130    33.477761    33.731474    35.047460    36.137281    36.595846    37.888474    38.071159    38.124842    39.653478    39.756890    39.796253    40.539514    40.750875 
    92     1.065262  -37.625140    -7.723630    -5.903695    -5.511330     3.922763     7.653708     7.795886    10.245764    13.012792    13.978708    15.283845    16.356136    16.842373    17.777418    18.457175    19.250499    27.259309    28.893229    29.473951    30.955277    32.537658    32.789425    32.993756    33.583206    33.795969    34.929133    35.895967    36.303898    37.923300    38.077134    38.116659    39.658983    39.741529    39.779330    40.569591    40.753602 
    93     1.080636  -38.729889    -7.005584    -6.330368    -4.542620     3.777249     7.431671     7.607058    10.065113    13.120010    13.991379    15.074803    16.038326    16.461073    17.912804    18.501151    19.176222    27.525073    29.419983    29.937562    31.213453    32.608550    32.834516    33.038004    33.665306    33.855033    34.812319    35.642415    35.989200    37.950526    38.077754    38.106567    39.664339    39.730569    39.763163    40.606587    40.758834 
    94     1.096010  -39.696945    -6.741762    -6.121971    -3.451814     3.531414     7.340367     7.639737     9.909093    13.237183    14.003219    14.877104    15.723268    16.088190    18.033176    18.516301    19.058491    27.759048    29.942174    30.389953    31.461400    32.669164    32.847088    33.094552    33.715084    33.907129    34.703490    35.382255    35.659859    37.971615    38.072026    38.093723    39.670612    39.722399    39.748075    40.647017    40.765851 
    95     1.111384  -40.522379    -7.074229    -5.129508    -2.399959     3.155339     7.556287     7.805801     9.778265    13.362465    14.013683    14.691320    15.412400    15.719697    18.136737    18.507003    18.912046    27.959759    30.456877    30.829660    31.699529    32.718644    32.847571    33.136755    33.724110    33.944695    34.610393    35.123075    35.326613    37.987683    38.061711    38.078176    39.677815    39.716038    39.734561    40.687422    40.773836 
    96     1.126758  -41.202683    -7.348743    -4.054379    -1.522724     2.652018     8.008993     8.118669     9.672499    13.494963    14.022795    14.518752    15.107397    15.354043    18.222531    18.480285    18.754727    28.125780    30.961104    31.254788    31.927813    32.755491    32.845649    33.147491    33.685341    33.947286    34.539811    34.876603    35.010204    37.999610    38.049288    38.061091    39.685267    39.711017    39.723118    40.724678    40.781919 
    97     1.142132  -41.734941    -7.562437    -2.966936    -0.872152     2.053992     8.519632     8.572365     9.591264    13.635023    14.031523    14.361645    14.811705    14.998914    18.289877    18.445038    18.605964    28.255972    31.450998    31.662558    32.145175    32.777944    32.844063    33.116682    33.591997    33.873084    34.493914    34.664411    34.749771    38.008127    38.037089    38.044453    39.692110    39.707161    39.714042    40.756255    40.789246 
    98     1.157506  -42.116824    -7.715156    -1.923886    -0.431041     1.396470     8.986554     9.044045     9.533880    13.784530    14.042074    14.224188    14.537746    14.675116    18.338303    18.410794    18.484302    28.349490    31.919705    32.048235    32.348651    32.786164    32.837169    33.040348    33.444460    33.675460    34.468796    34.526868    34.576472    38.013768    38.026972    38.030518    39.697565    39.704434    39.707509    40.780171    40.795073 
    99     1.172880  -42.346634    -7.806836    -0.942000    -0.160443     0.705637     9.349094     9.371659     9.499732    13.945134    14.057460    14.116301    14.326707    14.404914    18.367501    18.386184    18.404843    28.405789    32.348353    32.401714    32.530232    32.778366    32.805678    32.913330    33.278860    33.388136    34.457575    34.468820    34.483314    38.016979    38.020327    38.021257    39.701062    39.702797    39.703566    40.795073    40.798830 
   100     1.188254  -42.423352    -7.837406     0.000000     0.000000     0.000000     9.488398     9.488398     9.488398    14.069883    14.069883    14.069883    14.243442    14.243442    18.377258    18.377258    18.377258    28.424585    32.642533    32.642533    32.642533    32.741234    32.741234    32.741234    33.200158    33.200158    34.454550    34.454550    34.454550    38.018021    38.018021    38.018021    39.702264    39.702264    39.702264    40.800119    40.800119 
   101     1.188254  -42.423352    -7.837406     0.000000     0.000000     0.000000     9.488398     9.488398     9.488398    14.069883    14.069883    14.069883    14.243442    14.243442    18.377258    18.377258    18.377258    28.424585    32.642533    32.642533    32.642533    32.741234    32.741234    32.741234    33.200158    33.200158    34.454550    34.454550    34.454550    38.018021    38.018021    38.018021    39.702264    39.702264    39.702264    40.800119    40.800119 
   102     1.199125  -42.384993    -7.822124    -0.373165    -0.373165     0.275912     9.421868     9.421868     9.497117    14.032912    14.032912    14.075214    14.316950    14.316950    18.373861    18.385688    18.385688    28.415187    32.475346    32.475346    32.573563    32.806856    32.806856    32.808356    33.276021    33.276021    34.457365    34.464543    34.464543    38.018715    38.018814    38.018814    39.702289    39.702289    39.702525    40.798533    40.798533 
   103     1.209996  -42.269989    -7.776319    -0.772249    -0.772249     0.551702     9.231851     9.231851     9.523304    13.984485    13.984485    14.091133    14.469173    14.469173    18.363744    18.410249    18.410249    28.386994    32.212595    32.212595    32.471713    32.831255    32.831255    32.904379    33.432757    33.432757    34.466080    34.499109    34.499109    38.020785    38.021083    38.021083    39.702376    39.702376    39.703318    40.793834    40.793834 
   104     1.220867  -42.078638    -7.700125    -1.221501    -1.221501     0.827213     8.944372     8.944372     9.567049    13.952722    13.952722    14.117417    14.657883    14.657883    18.346994    18.448745    18.448745    28.340080    31.920511    31.920511    32.368959    32.826048    32.826048    32.996595    33.580454    33.580454    34.481380    34.570521    34.570521    38.024145    38.024592    38.024592    39.702487    39.702487    39.704645    40.786209    40.786209 
   105     1.231738  -41.811412    -7.593745    -1.741029    -1.741029     1.102227     8.596716     8.596716     9.628483    13.936307    13.936307    14.153693    14.868277    14.868277    18.323822    18.497766    18.497766    28.274544    31.612396    31.612396    32.269452    32.806906    32.806906    33.079687    33.678646    33.678646    34.504316    34.690645    34.690645    38.028683    38.028919    38.028919    39.702636    39.702636    39.706504    40.776018    40.776018 
   106     1.242609  -41.468979    -7.457457    -2.342473    -2.342473     1.376467     8.233444     8.233444     9.707767    13.931261    13.931261    14.199504    15.090883    15.090883    18.294476    18.553024    18.553024    28.190610    31.293655    31.293655    32.175153    32.778366    32.778366    33.150318    33.719250    33.719250    34.536018    34.858080    34.858080    38.033481    38.033481    38.034250    39.702772    39.702772    39.708922    40.763682    40.763682 
   107     1.253480  -41.052158    -7.291587    -3.022751    -3.022751     1.649622     7.902126     7.902126     9.805055    13.934335    13.934335    14.254328    15.319626    15.319626    18.259291    18.609795    18.609795    28.088636    30.967080    30.967080    32.087338    32.741953    32.741953    33.205948    33.712704    33.712704    34.577377    35.058630    35.058630    38.037622    38.037622    38.040709    39.702921    39.702921    39.711860    40.749784    40.749784 
   108     1.264351  -40.561991    -7.096522    -3.759619    -3.759619     1.921423     7.644722     7.644722     9.920463    13.943212    13.943212    14.317607    15.551171    15.551171    18.218650    18.663255    18.663255    27.969157    30.634429    30.634429    32.006838    32.698336    32.698336    33.244815    33.672447    33.672447    34.628730    35.277046    35.277046    38.040548    38.040548    38.047925    39.703107    39.703107    39.715282    40.735018    40.735018 
   109     1.275222  -39.999643    -6.872706    -4.515731    -4.515731     2.191769     7.486336     7.486336    10.054019    13.956305    13.956305    14.388821    15.784092    15.784092    18.172951    18.708929    18.708929    27.832878    30.296931    30.296931    31.934148    32.647864    32.647864    33.266165    33.608151    33.608151    34.689579    35.502690    35.502690    38.041440    38.041440    38.055822    39.703405    39.703405    39.719113    40.720115    40.720115 
   110     1.286093  -39.366440    -6.620694    -5.251309    -5.251309     2.460896     7.430548     7.430548    10.205610    13.972422    13.972422    14.467499    16.018129    16.018129    18.122665    18.742937    18.742937    27.680692    29.955576    29.955576    31.869456    32.590796    32.590796    33.270107    33.525767    33.525767    34.758586    35.728953    35.728953    38.039482    38.039482    38.064352    39.703975    39.703975    39.723229    40.705919    40.705919 
   111     1.296964  -38.663870    -6.341252    -5.935487    -5.935487     2.729613     7.465342     7.465342    10.374915    13.990721    13.990721    14.553343    16.253480    16.253480    18.068250    18.762166    18.762166    27.513654    29.611222    29.611222    31.812648    32.527318    32.527318    33.257461    33.428988    33.428988    34.833842    35.951572    35.951572    38.033927    38.033927    38.073564    39.705103    39.705103    39.727482    40.693249    40.693249 
   112     1.307835  -37.893545    -6.549426    -6.549426    -6.035539     2.999546     7.572772     7.572772    10.561348    14.010484    14.010484    14.646204    16.490443    16.490443    18.010141    18.764472    18.764472    27.332928    29.264698    29.264698    31.763428    32.457642    32.457642    33.229380    33.320245    33.320245    34.913128    36.167433    36.167433    38.024257    38.024257    38.083557    39.707186    39.707186    39.731660    40.682884    40.682884 
   113     1.318706  -37.057163    -7.083662    -7.083662    -5.705422     3.273352     7.735469     7.735469    10.763991    14.031151    14.031151    14.746144    16.729055    16.729055    17.948783    18.748727    18.748727    27.139792    28.916798    28.916798    31.721324    32.381915    32.381915    33.187115    33.201261    33.201261    34.994210    36.373736    36.373736    38.010408    38.010408    38.094529    39.710757    39.710757    39.735503    40.675544    40.675544 
   114     1.329577  -36.156548    -7.534348    -7.534348    -5.353920     3.554803     7.939100     7.939100    10.981550    14.052191    14.052191    14.853535    16.968733    16.968733    17.884549    18.714979    18.714979    26.935572    28.568389    28.568389    31.685742    32.300311    32.300311    33.073364    33.073364    33.131808    35.074971    36.567430    36.567430    37.993051    37.993051    38.106728    39.716509    39.716509    39.738727    40.671825    40.671825 
   115     1.340448  -35.193583    -7.900495    -7.900495    -4.985745     3.848562     8.172574     8.172576    11.212323    14.073143    14.073143    14.969023    17.207854    17.207854    17.817736    18.664879    18.664879    26.721620    28.220377    28.220377    31.656024    32.213004    32.213004    32.937655    32.937655    33.064437    35.153512    36.744473    36.744473    37.974231    37.974231    38.120478    39.725238    39.725238    39.741033    40.672135    40.672135 
   116     1.351319  -34.170190    -8.182337    -8.182337    -4.607750     4.159481     8.427471     8.427471    11.454210    14.093526    14.093526    15.093623    17.442535    17.442535    17.748555    18.602703    18.602703    26.499312    27.873841    27.873841    31.631427    32.120156    32.120156    32.795066    32.795066    32.985871    35.228186    36.898915    36.898915    37.958200    37.958200    38.136124    39.737809    39.737809    39.742074    40.676747    40.676747 
   117     1.362190  -33.088291    -8.380467    -8.380467    -4.228871     4.491355     8.697363     8.697363    11.704744    14.112904    14.112904    15.228625    17.663195    17.663195    17.677143    18.538779    18.538779    26.270023    27.529957    27.529957    31.611205    32.021914    32.021914    32.646476    32.646476    32.896841    35.297515    37.021965    37.021965    37.952410    37.952410    38.154014    39.741541    39.755104    39.755104    40.685748    40.685748 
   118     1.373061  -31.949807    -8.495379    -8.495379    -3.859104     4.845431     8.977246     8.977246    11.961168    14.130819    14.130819    15.375628    17.603511    17.844020    17.844020    18.499911    18.499911    26.035143    27.190190    27.190190    31.594505    31.918440    31.918440    32.492716    32.492716    32.798054    35.360237    37.102552    37.102552    37.966867    37.966867    38.174471    39.739148    39.777942    39.777942    40.699063    40.699063 
   119     1.383932  -30.756562    -8.527212    -8.527211    -3.507348     5.219429     9.263099     9.263099    12.220556    14.146862    14.146862    15.536417    17.527549    17.930050    17.930050    18.542275    18.542275    25.796085    26.856213    26.856213    31.580396    31.809846    31.809846    32.334567    32.334567    32.690290    35.415259    37.132208    37.132208    38.009268    38.009268    38.197792    39.734611    39.807077    39.807077    40.716507    40.716507 
   120     1.394803  -29.510278    -8.475552    -8.475552    -3.178723     5.607768     9.551552     9.551552    12.479976    14.160673    14.160673    15.712779    17.449094    17.898360    17.898360    18.690010    18.690010    25.554324    26.530108    26.530108    31.567812    31.696256    31.696256    32.172847    32.172847    32.574456    35.461590    37.111764    37.111764    38.078362    38.078362    38.224187    39.727717    39.843068    39.843068    40.737820    40.737820 
   121     1.405674  -28.212442    -8.339232    -8.339232    -2.872371     6.002945     9.839637     9.839637    12.736689    14.172042    14.172042    15.906287    17.367887    17.799933    17.799933    18.893325    18.893325    25.311397    26.214418    26.214418    31.555328    31.577743    31.577743    32.008388    32.008388    32.451877    35.498400    37.050196    37.050196    38.165024    38.165024    38.253756    39.718307    39.886312    39.886312    40.762653    40.762653 
   122     1.416545  -26.864272    -8.116041    -8.116041    -2.580148     6.397235    10.124579    10.124580    12.988343    14.181031    14.181031    16.117958    17.283705    17.674576    17.674576    19.113240    19.113240    25.069004    25.912254    25.912254    31.454346    31.454346    31.540909    31.842069    31.842069    32.324524    35.524956    36.957756    36.957756    38.259174    38.259174    38.286537    39.706269    39.936996    39.936996    40.790623    40.790623 
   123     1.427416  -25.466571    -7.802257    -7.802256    -2.285398     6.783894    10.403633    10.403633    13.233228    14.188135    14.188135    16.347879    17.196448    17.539909    17.539909    19.332487    19.332487    24.828991    25.627497    25.627497    31.326051    31.326051    31.521307    31.674820    31.674820    32.195697    35.540590    36.842120    36.842120    38.322404    38.353635    38.353635    39.691614    39.994993    39.994993    40.821332    40.821332 
   124     1.438287  -24.019588    -7.391854    -7.391854    -1.959382     7.157664    10.673932    10.673932    13.470278    14.194507    14.194507    16.594376    17.106773    17.405093    17.405093    19.541269    19.541269    24.593528    25.364932    25.364932    31.192785    31.192785    31.491032    31.507633    31.507633    32.070998    35.544719    36.708383    36.708383    38.361185    38.444078    38.444078    39.674381    40.059946    40.059946    40.854398    40.854398 
   125     1.449158  -22.522827    -6.875020    -6.875020    -1.547146     7.514779    10.932385    10.932385    13.699158    14.202231    14.202231    16.846836    17.023099    17.276154    17.276154    19.731702    19.731702    24.365157    25.130362    25.130362    31.054473    31.054473    31.341574    31.341574    31.441266    31.959502    35.536846    36.559904    36.559904    38.402582    38.528285    38.528285    39.654705    40.131185    40.131185    40.889410    40.889410 
   126     1.460029  -20.974726    -6.235154    -6.235154    -0.878703     7.852752    11.175655    11.175655    13.920053    14.214555    14.214555    16.894457    17.152893    17.157530    17.157530    19.896025    19.896025    24.146977    24.930531    24.930531    30.911128    30.911128    31.177598    31.177598    31.361584    31.871973    35.516464    36.398966    36.398966    38.446235    38.605264    38.605264    39.632823    40.207817    40.207817    40.925984    40.925984 
   127     1.470900  -19.372321    -5.441912    -5.441912     1.070234     8.170125    11.400287    11.400287    14.133472    14.235904    14.235904    16.798075    17.052383    17.052383    17.430757    20.026403    20.026403    23.942832    24.772841    24.772841    30.762934    30.762934    31.016535    31.016535    31.247510    31.813367    35.483113    36.227254    36.227254    38.491711    38.674854    38.674854    39.608982    40.288776    40.288776    40.963748    40.963748 
   128     1.481771  -17.710667    -4.431232    -4.431232     1.868561     8.466227    11.603137    11.603137    14.271611    14.271611    14.339961    16.693585    16.962758    16.962758    17.715167    20.115519    20.115519    23.757556    24.664370    24.664370    30.610464    30.610464    30.858858    30.858858    31.104574    31.778727    35.436373    36.046094    36.046094    38.538563    38.737353    38.737353    39.583553    40.372884    40.372884    41.002356    41.002356 
   129     1.492642  -15.982101    -3.019146    -3.019145     2.534832     8.740997    11.782178    11.782178    14.327116    14.327116    14.539816    16.586292    16.889547    16.889547    17.994023    20.157871    20.157871    23.597312    24.610538    24.610538    30.454720    30.454720    30.704676    30.704676    30.941899    31.759647    35.375821    35.856516    35.856516    38.586320    38.793305    38.793305    39.556922    40.458976    40.458976    41.041484    41.041484 
   130     1.503513  -14.175278     1.326286     1.326287     3.187522     8.994815    11.937598    11.937598    14.406736    14.406736    14.732791    16.478517    16.832690    16.832690    18.257208    20.151188    20.151188    23.469736    24.613551    24.613551    30.297017    30.297017    30.553792    30.553792    30.766641    31.749753    35.301073    35.659425    35.659425    38.634524    38.843356    38.843356    39.529486    40.545911    40.545911    41.080798    41.080798 
   131     1.514384  -12.274344     3.575720     3.575720     3.875798     9.228410    12.072762    12.072762    14.512479    14.512479    14.917807    16.373134    16.791380    16.791380    18.493539    20.097208    20.097208    23.383955    24.671636    24.671636    30.138782    30.138782    30.405934    30.405934    30.583486    31.745265    35.211758    35.455614    35.455614    38.682715    38.888187    38.888187    39.501677    40.632660    40.632660    41.120013    41.120013 
   132     1.525255  -10.259634     4.644416     4.873723     4.873723     9.442845    12.194417    12.194417    14.643451    14.643451    15.092296    16.274383    16.764204    16.764204    18.691175    20.001197    20.001197    23.349910    24.779449    24.779449    29.981426    29.981426    30.260927    30.260927    30.395631    31.744000    35.107590    35.245803    35.245803    38.730459    38.928431    38.928431    39.473930    40.718293    40.718293    41.158856    41.158856 
   133     1.536126   -8.115043     5.552265     5.868847     5.868847     9.639729    12.311845    12.311845    14.796269    14.796269    15.250966    16.189271    16.749500    16.749500    18.839170    19.870547    19.870547    23.376739    24.929502    24.929502    29.826265    29.826265    30.118709    30.118709    30.205446    31.744670    34.988321    35.030648    35.030648    38.777373    38.964620    38.964620    39.446655    40.802029    40.802029    41.197041    41.197041 
   134     1.546997   -5.841643     6.661806     6.681367     6.681367     9.822208    12.435256    12.435256    14.966097    14.966097    15.383550    16.129835    16.745433    16.745433    18.929824    19.713167    19.713167    23.470418    25.113662    25.113662    29.674464    29.674464    29.979455    29.979455    30.014864    31.746480    34.810794    34.810794    34.853828    38.823085    38.997264    38.997264    39.420185    40.883186    40.883186    41.234335    41.234335 
   135     1.557868   -3.344745     7.358377     7.358378     7.946582     9.999427    12.574014    12.574014    15.147703    15.147703    15.473634    16.114276    16.750231    16.750231    18.960683    19.536384    19.536384    23.631667    25.324328    25.324328    29.527064    29.527064    29.825645    29.843461    29.843461    31.748947    34.586887    34.586887    34.704085    38.867271    39.026759    39.026759    39.394868    40.961194    40.961194    41.270500    41.270500 
   136     1.568739    2.140490     7.924380     7.924381     9.196197    10.218022    12.735052    12.735052    15.336090    15.336090    15.509576    16.155908    16.762158    16.762158    18.935007    19.346397    19.346397    23.855525    25.554820    25.554820    29.385058    29.385058    29.639378    29.711175    29.711175    31.751712    34.359582    34.359582    34.539241    38.909635    39.053440    39.053440    39.370952    41.035582    41.035582    41.305338    41.305338 
   137     1.579610    4.040500     8.395657     8.395657     9.956999    10.776529    12.921791    12.921791    15.503129    15.526858    15.526858    16.244380    16.779664    16.779664    18.860123    19.148153    19.148153    24.132905    25.799556    25.799556    29.249324    29.249324    29.457623    29.583165    29.583165    31.754563    34.129586    34.129586    34.359582    38.949929    39.077566    39.077566    39.348648    41.105953    41.105953    41.338627    41.338627 
   138     1.590481    5.122767     8.785756     8.785756    10.177348    11.675978    13.133685    13.133685    15.478444    15.716226    15.716226    16.356458    16.801298    16.801298    18.745168    18.945520    18.945520    24.452898    26.053839    26.053839    29.120770    29.120770    29.281844    29.460078    29.460090    31.757353    33.897719    33.897719    34.165640    38.987929    39.099374    39.099374    39.328080    41.171985    41.171985    41.370192    41.370192 
   139     1.601352    5.950471     9.107443     9.107443    10.283975    12.496056    13.366755    13.366755    15.452830    15.900919    15.900919    16.474958    16.825809    16.825809    18.599269    18.741375    18.741375    24.804567    26.313602    26.313602    29.000286    29.000286    29.113517    29.342644    29.342644    31.759994    33.664872    33.664872    33.958184    39.023424    39.119025    39.119025    39.309347    41.233430    41.233430    41.399860    41.399860 
   140     1.612223    6.655261     9.372814     9.372814    10.353395    13.182409    13.614765    13.614765    15.435225    16.078148    16.078148    16.590136    16.852031    16.852031    18.430718    18.537899    18.537899    25.177908    26.575163    26.575163    28.888791    28.888791    28.954029    29.231620    29.231620    31.762399    33.432186    33.432186    33.738343    39.056266    39.136667    39.136667    39.292498    41.290064    41.290064    41.427471    41.427471 
   141     1.623094    7.285307     9.592652     9.592654    10.399264    13.745241    13.870721    13.870721    15.429348    16.245471    16.245471    16.696250    16.878960    16.878960    18.246967    18.336741    18.336741    25.563957    26.834888    26.834888    28.787325    28.787325    28.804757    29.127824    29.127824    31.764569    33.201051    33.201051    33.507616    39.086319    39.152413    39.152413    39.277509    41.341701    41.341701    41.452887    41.452887 
   142     1.633965    7.860307     9.775829     9.775829    10.426973    14.127980    14.127980    14.201326    15.435733    16.400744    16.400744    16.789657    16.905677    16.905677    18.054860    18.139191    18.139191    25.954605    27.088849    27.088849    28.667003    28.697204    28.697204    29.032087    29.032087    31.766466    32.973250    32.973250    33.268136    39.113458    39.166336    39.166336    39.264367    41.388219    41.388219    41.475972    41.475972 
   143     1.644836    8.387525     9.929060     9.929060    10.440312    14.380763    14.380775    14.566832    15.452532    16.542069    16.542069    16.868099    16.931366    16.931366    17.861154    17.946427    17.946427    26.342167    27.332284    27.332284    28.542006    28.620237    28.620237    28.945201    28.945201    31.768090    32.751152    32.751152    33.022817    39.137597    39.178511    39.178511    39.252998    41.429504    41.429504    41.496627    41.496627 
   144     1.655707    8.867637    10.057052    10.057052    10.442763    14.624210    14.624210    14.856127    15.476002    16.667784    16.667784    16.930560    16.955331    16.955331    17.672927    17.759800    17.759800    26.718781    27.558820    27.558820    28.430957    28.559252    28.559252    28.867987    28.867987    31.769453    32.537869    32.537869    32.775725    39.158661    39.188987    39.188987    39.243352    41.465446    41.465446    41.514728    41.514728 
   145     1.666578    9.297149    10.162859    10.162859    10.437725    14.853845    14.853845    15.081646    15.501009    16.776428    16.776428    16.976966    16.976966    16.977263    17.497781    17.581195    17.581195    27.075757    27.759085    27.759085    28.334910    28.519119    28.519119    28.801186    28.801186    31.770569    32.337617    32.337617    32.532637    39.176577    39.197790    39.197790    39.235355    41.495982    41.495982    41.530201    41.530201 
   146     1.677449    9.669501    10.248305    10.248305    10.428441    15.064760    15.064760    15.253929    15.522160    16.866661    16.866661    16.995823    16.995823    17.009672    17.343513    17.413772    17.413772    27.402630    27.919552    27.919552    28.254831    28.507602    28.507602    28.745482    28.745482    31.771450    32.155986    32.155986    32.301712    39.191305    39.204968    39.204968    39.228921    41.521063    41.521063    41.542958    41.542958 
   147     1.688320    9.975818    10.314369    10.314369    10.417840    15.250445    15.250445    15.381331    15.535537    16.937069    16.937069    17.011817    17.011817    17.030190    17.217326    17.262938    17.262938    27.686296    28.026559    28.026559    28.191564    28.531083    28.531083    28.701457    28.701457    31.772119    32.000131    32.000131    32.094380    39.202798    39.210547    39.210547    39.223999    41.540627    41.540627    41.552963    41.552963 
   148     1.699191   10.205858    10.361507    10.361508    10.408374    15.401106    15.401106    15.469642    15.540620    16.985657    16.985657    17.025628    17.025628    17.041782    17.124601    17.137917    17.137917    27.910378    28.081408    28.081408    28.145778    28.579597    28.579597    28.669582    28.669582    31.772578    31.878655    31.878655    31.925755    39.211055    39.214514    39.214514    39.220515    41.554649    41.554649    41.560154    41.560154 
   149     1.710062   10.349612    10.389889    10.389889    10.401895    15.502682    15.502682    15.522048    15.540558    17.010292    17.010292    17.035137    17.035137    17.047337    17.055730    17.055730    17.068190    28.056438    28.103055    28.103055    28.117970    28.625172    28.625172    28.650241    28.650241    31.772863    31.800535    31.800535    31.813429    39.216027    39.216907    39.216907    39.218432    41.563105    41.563105    41.564506    41.564506 
   150     1.720933   10.399554    10.399556    10.399556    10.399570    15.539802    15.539814    15.539814    15.539814    17.016701    17.016701    17.016714    17.016714    17.048961    17.048973    17.048973    17.048973    28.108473    28.108473    28.108473    28.108473    28.643620    28.643620    28.643620    28.643620    31.772950    31.772950    31.772950    31.772950    39.217713    39.217726    39.217726    39.217726    41.565981    41.565981    41.565981    41.565981 
