# k-axis, Phonon energy [meV], band-1, band-2, band-3, band-4, band-5, band-6, band-7
     1     0.000000    0.000000     0.000000     0.000000 
     2     0.016795    0.575194     0.575194     1.044515 
     3     0.033589    1.149733     1.149733     2.086647 
     4     0.050384    1.722966     1.722966     3.124021 
     5     0.067179    2.294241     2.294241     4.154290 
     6     0.083974    2.862914     2.862914     5.175140 
     7     0.100768    3.428340     3.428340     6.184303 
     8     0.117563    3.989885     3.989885     7.179573 
     9     0.134358    4.546922     4.546922     8.158809 
    10     0.151153    5.098829     5.098829     9.119951 
    11     0.167947    5.644995     5.644995    10.061029 
    12     0.184742    6.184823     6.184823    10.980176 
    13     0.201537    6.717722     6.717722    11.875629 
    14     0.218332    7.243116     7.243116    12.745752 
    15     0.235126    7.760444     7.760444    13.589026 
    16     0.251921    8.269154     8.269154    14.404058 
    17     0.268716    8.768714     8.768714    15.189645 
    18     0.285510    9.258604     9.258604    15.944659 
    19     0.302305    9.738323     9.738323    16.668181 
    20     0.319100   10.207383    10.207383    17.359432 
    21     0.335895   10.665316    10.665316    18.017803 
    22     0.352689   11.111669    11.111669    18.642811 
    23     0.369484   11.546011    11.546011    19.234195 
    24     0.386279   11.967922    11.967922    19.791832 
    25     0.403074   12.377005    12.377005    20.315747 
    26     0.419868   12.772878    12.772878    20.806175 
    27     0.436663   13.155183    13.155183    21.263463 
    28     0.453458   13.523590    13.523590    21.688144 
    29     0.470253   13.877738    13.877738    22.080888 
    30     0.487047   14.217357    14.217357    22.442512 
    31     0.503842   14.542123    14.542123    22.773973 
    32     0.520637   14.851800    14.851800    23.076348 
    33     0.537432   15.146103    15.146103    23.350802 
    34     0.554226   15.424811    15.424811    23.598626 
    35     0.571021   15.687685    15.687685    23.821170 
    36     0.587816   15.934542    15.934542    24.019885 
    37     0.604610   16.165182    16.165182    24.196222 
    38     0.621405   16.379419    16.379419    24.351680 
    39     0.638200   16.577105    16.577105    24.487798 
    40     0.654995   16.758104    16.758104    24.606038 
    41     0.671789   16.922278    16.922278    24.707875 
    42     0.688584   17.069492    17.069492    24.794723 
    43     0.705379   17.199671    17.199671    24.867896 
    44     0.722174   17.312704    17.312704    24.928634 
    45     0.738968   17.408528    17.408528    24.978040 
    46     0.755763   17.487069    17.487069    25.017094 
    47     0.772558   17.548266    17.548266    25.046613 
    48     0.789353   17.592093    17.592093    25.067256 
    49     0.806147   17.618513    17.618513    25.079505 
    50     0.822942   17.627514    17.627514    25.083634 
    51     0.822942   17.627514    17.627526    25.083634 
    52     0.846693   17.617422    17.662612    25.070529 
    53     0.870445   17.587803    17.764549    25.032021 
    54     0.894196   17.538744    17.930260    24.968072 
    55     0.917947   17.470344    18.154825    24.878608 
    56     0.941699   17.382839    18.431809    24.763542 
    57     0.965450   17.276501    18.753686    24.622788 
    58     0.989201   17.151753    19.112137    24.456270 
    59     1.012953   17.009139    19.498459    24.263927 
    60     1.036704   16.849366    19.903861    24.045747 
    61     1.060455   16.673289    20.319690    23.801780 
    62     1.084207   16.481976    20.737601    23.532123 
    63     1.107958   16.276628    21.149736    23.236989 
    64     1.131709   16.058658    21.548691    22.916662 
    65     1.155461   15.829543    21.927673    22.571514 
    66     1.179212   15.590919    22.202028    22.280396 
    67     1.202963   15.344422    21.808776    22.601145 
    68     1.226715   15.091676    21.392439    22.884662 
    69     1.250466   14.834170    20.953748    23.126213 
    70     1.274218   14.573254    20.493534    23.321444 
    71     1.297969   14.309958    20.012641    23.466426 
    72     1.321720   14.044988    19.511985    23.557576 
    73     1.345472   13.778616    18.992459    23.591621 
    74     1.369223   13.510634    18.454981    23.565610 
    75     1.392974   13.240308    17.900406    23.476840 
    76     1.416726   12.966399    17.329577    23.322919 
    77     1.440477   12.687146    16.743263    23.101714 
    78     1.464228   12.400318    16.142134    22.811365 
    79     1.487980   12.103288    15.526834    22.450323 
    80     1.511731   11.793150    14.897858    22.017323 
    81     1.535482   11.466786    14.255667    21.511447 
    82     1.559234   11.121015    13.600618    20.932151 
    83     1.582985   10.752705    12.932998    20.279235 
    84     1.606736   10.358894    12.253079    19.552960 
    85     1.630488    9.936906    11.561051    18.753996 
    86     1.654239    9.484453    10.857118    17.883507 
    87     1.677990    8.999712    10.141490    16.943119 
    88     1.701742    8.481404     9.414408    15.934976 
    89     1.725493    7.928840     8.676168    14.861731 
    90     1.749244    7.341954     7.927139    13.726557 
    91     1.772996    6.721319     7.167786    12.533126 
    92     1.796747    6.068143     6.398675    11.285609 
    93     1.820498    5.384251     5.620488     9.988664 
    94     1.844250    4.672057     4.834026     8.647387 
    95     1.868001    3.934515     4.040206     7.267287 
    96     1.891752    3.175063     3.240057     5.854241 
    97     1.915504    2.397560     2.434713     4.414443 
    98     1.939255    1.606207     1.625389     2.954344 
    99     1.963006    0.805472     0.813374     1.480601 
   100     1.986758    0.000000     0.000000     0.000000 
   101     1.986758    0.000000     0.000000     0.000000 
   102     2.001302    0.495083     0.495083     0.907956 
   103     2.015847    0.989251     0.989251     1.814460 
   104     2.030392    1.481593     1.481593     2.718063 
   105     2.044936    1.971205     1.971205     3.617330 
   106     2.059481    2.457198     2.457198     4.510844 
   107     2.074026    2.938695     2.938695     5.397208 
   108     2.088570    3.414847     3.414847     6.275056 
   109     2.103115    3.884819     3.884819     7.143052 
   110     2.117660    4.347811     4.347811     7.999905 
   111     2.132204    4.803053     4.803053     8.844361 
   112     2.146749    5.249808     5.249808     9.675217 
   113     2.161294    5.687375     5.687375    10.491324 
   114     2.175838    6.115100     6.115100    11.291585 
   115     2.190383    6.532366     6.532366    12.074966 
   116     2.204928    6.938603     6.938603    12.840497 
   117     2.219472    7.333292     7.333292    13.587266 
   118     2.234017    7.715959     7.715959    14.314446 
   119     2.248562    8.086184     8.086184    15.021268 
   120     2.263106    8.443600     8.443600    15.707026 
   121     2.277651    8.787890     8.787890    16.371100 
   122     2.292196    9.118792     9.118792    17.012932 
   123     2.306740    9.436099     9.436099    17.632064 
   124     2.321285    9.739654     9.739654    18.228073 
   125     2.335830   10.029357    10.029357    18.800637 
   126     2.350374   10.305154    10.305156    19.349472 
   127     2.364919   10.567046    10.567046    19.874391 
   128     2.379464   10.815077    10.815078    20.375258 
   129     2.394008   11.049339    11.049339    20.851998 
   130     2.408553   11.269968    11.269968    21.304599 
   131     2.423098   11.477135    11.477135    21.733099 
   132     2.437642   11.671049    11.671049    22.137584 
   133     2.452187   11.851955    11.851955    22.518177 
   134     2.466732   12.020118    12.020118    22.875054 
   135     2.481276   12.175832    12.175833    23.208424 
   136     2.495821   12.319407    12.319408    23.518522 
   137     2.510366   12.451163    12.451163    23.805586 
   138     2.524910   12.571448    12.571448    24.069899 
   139     2.539455   12.680575    12.680575    24.311734 
   140     2.554000   12.778879    12.778879    24.531365 
   141     2.568544   12.866706    12.866706    24.729100 
   142     2.583089   12.944343    12.944355    24.905202 
   143     2.597634   13.012110    13.012110    25.059929 
   144     2.612178   13.070257    13.070257    25.193529 
   145     2.626723   13.119030    13.119030    25.306215 
   146     2.641268   13.158667    13.158667    25.398196 
   147     2.655812   13.189327    13.189327    25.469633 
   148     2.670357   13.211160    13.211160    25.520663 
   149     2.684902   13.224277    13.224277    25.551361 
   150     2.699446   13.228740    13.228740    25.561812 
