# k-axis, Phonon energy [meV], band-1, band-2, band-3, band-4, band-5, band-6, band-7
     1     0.000000    0.000000     0.000000     0.000000 
     2     0.016795    0.575194     0.575194     1.044516 
     3     0.033589    1.149733     1.149733     2.086647 
     4     0.050384    1.722966     1.722966     3.124022 
     5     0.067179    2.294242     2.294242     4.154292 
     6     0.083974    2.862914     2.862914     5.175142 
     7     0.100768    3.428341     3.428341     6.184307 
     8     0.117563    3.989886     3.989886     7.179576 
     9     0.134358    4.546922     4.546922     8.158813 
    10     0.151153    5.098829     5.098829     9.119955 
    11     0.167947    5.644995     5.644995    10.061034 
    12     0.184742    6.184823     6.184823    10.980181 
    13     0.201537    6.717721     6.717721    11.875634 
    14     0.218332    7.243115     7.243115    12.745752 
    15     0.235126    7.760441     7.760441    13.589026 
    16     0.251921    8.269151     8.269151    14.404071 
    17     0.268716    8.768711     8.768711    15.189645 
    18     0.285510    9.258601     9.258601    15.944671 
    19     0.302305    9.738318     9.738318    16.668194 
    20     0.319100   10.207378    10.207378    17.359444 
    21     0.335895   10.665309    10.665309    18.017803 
    22     0.352689   11.111662    11.111662    18.642823 
    23     0.369484   11.546001    11.546001    19.234208 
    24     0.386279   11.967911    11.967911    19.791832 
    25     0.403074   12.376993    12.376993    20.315760 
    26     0.419868   12.772866    12.772866    20.806175 
    27     0.436663   13.155171    13.155171    21.263463 
    28     0.453458   13.523565    13.523565    21.688144 
    29     0.470253   13.877726    13.877726    22.080888 
    30     0.487047   14.217332    14.217332    22.442525 
    31     0.503842   14.542110    14.542110    22.773985 
    32     0.520637   14.851775    14.851775    23.076348 
    33     0.537432   15.146079    15.146079    23.350802 
    34     0.554226   15.424773    15.424773    23.598626 
    35     0.571021   15.687661    15.687661    23.821170 
    36     0.587816   15.934517    15.934517    24.019873 
    37     0.604610   16.165145    16.165145    24.196210 
    38     0.621405   16.379382    16.379382    24.351680 
    39     0.638200   16.577081    16.577081    24.487786 
    40     0.654995   16.758067    16.758067    24.606038 
    41     0.671789   16.922241    16.922241    24.707875 
    42     0.688584   17.069455    17.069455    24.794723 
    43     0.705379   17.199634    17.199634    24.867896 
    44     0.722174   17.312666    17.312666    24.928634 
    45     0.738968   17.408491    17.408491    24.978040 
    46     0.755763   17.487019    17.487019    25.017094 
    47     0.772558   17.548228    17.548228    25.046601 
    48     0.789353   17.592055    17.592055    25.067243 
    49     0.806147   17.618475    17.618475    25.079493 
    50     0.822942   17.627476    17.627476    25.083621 
    51     0.822942   17.627476    17.627489    25.083621 
    52     0.846693   17.617384    17.662563    25.070517 
    53     0.870445   17.587766    17.764511    25.032021 
    54     0.894196   17.538694    17.930223    24.968072 
    55     0.917947   17.470307    18.154776    24.878595 
    56     0.941699   17.382802    18.431772    24.763542 
    57     0.965450   17.276464    18.753649    24.622788 
    58     0.989201   17.151716    19.112100    24.456258 
    59     1.012953   17.009114    19.498421    24.263915 
    60     1.036704   16.849328    19.903836    24.045747 
    61     1.060455   16.673264    20.319653    23.801780 
    62     1.084207   16.481951    20.737577    23.532123 
    63     1.107958   16.276615    21.149699    23.237001 
    64     1.131709   16.058633    21.548666    22.916662 
    65     1.155461   15.829531    21.927648    22.571514 
    66     1.179212   15.590907    22.202028    22.280371 
    67     1.202963   15.344422    21.808789    22.601108 
    68     1.226715   15.091664    21.392451    22.884638 
    69     1.250466   14.834170    20.953761    23.126188 
    70     1.274218   14.573254    20.493534    23.321419 
    71     1.297969   14.309958    20.012653    23.466414 
    72     1.321720   14.044988    19.511985    23.557551 
    73     1.345472   13.778616    18.992471    23.591609 
    74     1.369223   13.510646    18.454981    23.565585 
    75     1.392974   13.240320    17.900418    23.476816 
    76     1.416726   12.966424    17.329590    23.322894 
    77     1.440477   12.687159    16.743263    23.101689 
    78     1.464228   12.400331    16.142146    22.811353 
    79     1.487980   12.103308    15.526834    22.450311 
    80     1.511731   11.793171    14.897871    22.017311 
    81     1.535482   11.466809    14.255667    21.511435 
    82     1.559234   11.121038    13.600618    20.932126 
    83     1.582985   10.752728    12.933011    20.279223 
    84     1.606736   10.358917    12.253085    19.552948 
    85     1.630488    9.936930    11.561056    18.753983 
    86     1.654239    9.484476    10.857123    17.883495 
    87     1.677990    8.999734    10.141495    16.943107 
    88     1.701742    8.481426     9.414411    15.934963 
    89     1.725493    7.928861     8.676170    14.861731 
    90     1.749244    7.341974     7.927142    13.726545 
    91     1.772996    6.721338     7.167788    12.533113 
    92     1.796747    6.068160     6.398677    11.285606 
    93     1.820498    5.384267     5.620491     9.988661 
    94     1.844250    4.672071     4.834027     8.647384 
    95     1.868001    3.934526     4.040207     7.267285 
    96     1.891752    3.175073     3.240059     5.854240 
    97     1.915504    2.397567     2.434713     4.414442 
    98     1.939255    1.606212     1.625390     2.954344 
    99     1.963006    0.805474     0.813374     1.480600 
   100     1.986758    0.000000     0.000000     0.000000 
   101     1.986758    0.000000     0.000000     0.000000 
   102     2.001302    0.495084     0.495084     0.907956 
   103     2.015847    0.989253     0.989253     1.814458 
   104     2.030392    1.481596     1.481596     2.718061 
   105     2.044936    1.971209     1.971209     3.617329 
   106     2.059481    2.457203     2.457203     4.510841 
   107     2.074026    2.938702     2.938702     5.397205 
   108     2.088570    3.414853     3.414853     6.275052 
   109     2.103115    3.884827     3.884827     7.143048 
   110     2.117660    4.347820     4.347820     7.999901 
   111     2.132204    4.803062     4.803062     8.844356 
   112     2.146749    5.249817     5.249817     9.675213 
   113     2.161294    5.687385     5.687385    10.491319 
   114     2.175838    6.115110     6.115110    11.291580 
   115     2.190383    6.532376     6.532376    12.074963 
   116     2.204928    6.938614     6.938614    12.840497 
   117     2.219472    7.333303     7.333303    13.587266 
   118     2.234017    7.715970     7.715970    14.314446 
   119     2.248562    8.086195     8.086195    15.021256 
   120     2.263106    8.443611     8.443611    15.707014 
   121     2.277651    8.787900     8.787900    16.371088 
   122     2.292196    9.118802     9.118802    17.012932 
   123     2.306740    9.436108     9.436109    17.632064 
   124     2.321285    9.739664     9.739664    18.228073 
   125     2.335830   10.029366    10.029366    18.800637 
   126     2.350374   10.305163    10.305163    19.349472 
   127     2.364919   10.567053    10.567053    19.874391 
   128     2.379464   10.815083    10.815083    20.375258 
   129     2.394008   11.049344    11.049344    20.852010 
   130     2.408553   11.269972    11.269972    21.304612 
   131     2.423098   11.477137    11.477137    21.733111 
   132     2.437642   11.671052    11.671052    22.137584 
   133     2.452187   11.851955    11.851955    22.518190 
   134     2.466732   12.020118    12.020118    22.875066 
   135     2.481276   12.175830    12.175830    23.208436 
   136     2.495821   12.319404    12.319405    23.518522 
   137     2.510366   12.451163    12.451163    23.805598 
   138     2.524910   12.571436    12.571436    24.069911 
   139     2.539455   12.680563    12.680563    24.311734 
   140     2.554000   12.778879    12.778879    24.531377 
   141     2.568544   12.866694    12.866694    24.729113 
   142     2.583089   12.944343    12.944343    24.905214 
   143     2.597634   13.012098    13.012098    25.059941 
   144     2.612178   13.070244    13.070244    25.193542 
   145     2.626723   13.119030    13.119030    25.306227 
   146     2.641268   13.158654    13.158654    25.398208 
   147     2.655812   13.189315    13.189315    25.469645 
   148     2.670357   13.211148    13.211148    25.520675 
   149     2.684902   13.224265    13.224265    25.551385 
   150     2.699446   13.228728    13.228728    25.561837 
