# Temperature [K], Thermal Conductivity (xx, xy, xz, yx, yy, yz, zx, zy, zz) [W/mK]
      0.00         0.0000         0.0000         0.0000         0.0000         0.0000         0.0000         0.0000         0.0000         0.0000
     10.00         9.1626        -0.6153        -0.4153        -0.6153         9.5309        -0.3062        -0.4153        -0.3062         8.0661
     20.00        14.0862        -0.7799        -0.7757        -0.7799        13.4207        -0.8956        -0.7757        -0.8956        13.7618
     30.00        11.2196        -0.7745        -0.6387        -0.7745        10.9489        -0.8162        -0.6387        -0.8162        11.1403
     40.00         9.0218        -0.5776        -0.4970        -0.5776         8.9835        -0.6512        -0.4970        -0.6512         8.9531
     50.00         7.6519        -0.4222        -0.4012        -0.4222         7.7260        -0.5224        -0.4012        -0.5224         7.5632
     60.00         6.7260        -0.3210        -0.3353        -0.3210         6.8551        -0.4282        -0.3353        -0.4282         6.6169
     70.00         6.0385        -0.2561        -0.2875        -0.2561         6.1936        -0.3585        -0.2875        -0.3585         5.9144
     80.00         5.4919        -0.2129        -0.2511        -0.2129         5.6579        -0.3058        -0.2511        -0.3058         5.3589
     90.00         5.0385        -0.1829        -0.2227        -0.1829         5.2072        -0.2651        -0.2227        -0.2651         4.9013
    100.00         4.6528        -0.1610        -0.1999        -0.1610         4.8197        -0.2331        -0.1999        -0.2331         4.5148
    110.00         4.3194        -0.1443        -0.1812        -0.1443         4.4820        -0.2075        -0.1812        -0.2075         4.1827
    120.00         4.0279        -0.1311        -0.1656        -0.1311         4.1851        -0.1867        -0.1656        -0.1867         3.8939
    130.00         3.7709        -0.1204        -0.1525        -0.1204         3.9221        -0.1695        -0.1525        -0.1695         3.6405
    140.00         3.5428        -0.1114        -0.1413        -0.1114         3.6879        -0.1551        -0.1413        -0.1551         3.4165
    150.00         3.3392        -0.1038        -0.1316        -0.1038         3.4783        -0.1430        -0.1316        -0.1430         3.2171
    160.00         3.1565        -0.0972        -0.1232        -0.0972         3.2898        -0.1326        -0.1232        -0.1326         3.0387
    170.00         2.9918        -0.0915        -0.1157        -0.0915         3.1195        -0.1236        -0.1157        -0.1236         2.8782
    180.00         2.8426        -0.0864        -0.1091        -0.0864         2.9651        -0.1157        -0.1091        -0.1157         2.7331
    190.00         2.7069        -0.0819        -0.1033        -0.0819         2.8245        -0.1088        -0.1033        -0.1088         2.6014
    200.00         2.5831        -0.0778        -0.0980        -0.0778         2.6961        -0.1027        -0.0980        -0.1027         2.4814
    210.00         2.4698        -0.0742        -0.0932        -0.0742         2.5784        -0.0972        -0.0932        -0.0972         2.3716
    220.00         2.3656        -0.0709        -0.0889        -0.0709         2.4701        -0.0923        -0.0889        -0.0923         2.2708
    230.00         2.2696        -0.0678        -0.0850        -0.0678         2.3703        -0.0879        -0.0850        -0.0879         2.1781
    240.00         2.1808        -0.0650        -0.0814        -0.0650         2.2780        -0.0839        -0.0814        -0.0839         2.0924
    250.00         2.0986        -0.0625        -0.0781        -0.0625         2.1924        -0.0802        -0.0781        -0.0802         2.0130
    260.00         2.0221        -0.0601        -0.0750        -0.0601         2.1128        -0.0769        -0.0750        -0.0769         1.9393
    270.00         1.9509        -0.0579        -0.0722        -0.0579         2.0386        -0.0738        -0.0722        -0.0738         1.8707
    280.00         1.8845        -0.0559        -0.0696        -0.0559         1.9694        -0.0709        -0.0696        -0.0709         1.8067
    290.00         1.8223        -0.0540        -0.0672        -0.0540         1.9046        -0.0683        -0.0672        -0.0683         1.7468
    300.00         1.7640        -0.0522        -0.0649        -0.0522         1.8438        -0.0659        -0.0649        -0.0659         1.6907
    310.00         1.7093        -0.0505        -0.0628        -0.0505         1.7867        -0.0636        -0.0628        -0.0636         1.6381
    320.00         1.6578        -0.0490        -0.0608        -0.0490         1.7330        -0.0615        -0.0608        -0.0615         1.5885
    330.00         1.6092        -0.0475        -0.0589        -0.0475         1.6823        -0.0596        -0.0589        -0.0596         1.5419
    340.00         1.5634        -0.0461        -0.0572        -0.0461         1.6345        -0.0577        -0.0572        -0.0577         1.4978
    350.00         1.5201        -0.0448        -0.0555        -0.0448         1.5893        -0.0560        -0.0555        -0.0560         1.4562
    360.00         1.4791        -0.0436        -0.0540        -0.0436         1.5465        -0.0543        -0.0540        -0.0543         1.4168
    370.00         1.4402        -0.0424        -0.0525        -0.0424         1.5059        -0.0528        -0.0525        -0.0528         1.3795
    380.00         1.4033        -0.0413        -0.0511        -0.0413         1.4674        -0.0514        -0.0511        -0.0514         1.3440
    390.00         1.3682        -0.0403        -0.0498        -0.0403         1.4307        -0.0500        -0.0498        -0.0500         1.3103
    400.00         1.3348        -0.0393        -0.0486        -0.0393         1.3958        -0.0487        -0.0486        -0.0487         1.2782
    410.00         1.3029        -0.0383        -0.0474        -0.0383         1.3626        -0.0475        -0.0474        -0.0475         1.2477
    420.00         1.2726        -0.0374        -0.0462        -0.0374         1.3308        -0.0463        -0.0462        -0.0463         1.2186
    430.00         1.2436        -0.0366        -0.0451        -0.0366         1.3006        -0.0452        -0.0451        -0.0452         1.1907
    440.00         1.2158        -0.0357        -0.0441        -0.0357         1.2716        -0.0441        -0.0441        -0.0441         1.1641
    450.00         1.1893        -0.0350        -0.0431        -0.0350         1.2439        -0.0431        -0.0431        -0.0431         1.1387
    460.00         1.1639        -0.0342        -0.0422        -0.0342         1.2174        -0.0421        -0.0422        -0.0421         1.1144
    470.00         1.1396        -0.0335        -0.0413        -0.0335         1.1919        -0.0412        -0.0413        -0.0412         1.0910
    480.00         1.1162        -0.0328        -0.0404        -0.0328         1.1675        -0.0403        -0.0404        -0.0403         1.0686
    490.00         1.0938        -0.0321        -0.0396        -0.0321         1.1441        -0.0395        -0.0396        -0.0395         1.0471
    500.00         1.0723        -0.0315        -0.0388        -0.0315         1.1216        -0.0387        -0.0388        -0.0387         1.0265
    510.00         1.0515        -0.0309        -0.0380        -0.0309         1.0999        -0.0379        -0.0380        -0.0379         1.0066
    520.00         1.0316        -0.0303        -0.0373        -0.0303         1.0791        -0.0371        -0.0373        -0.0371         0.9875
    530.00         1.0124        -0.0297        -0.0366        -0.0297         1.0590        -0.0364        -0.0366        -0.0364         0.9691
    540.00         0.9939        -0.0292        -0.0359        -0.0292         1.0397        -0.0357        -0.0359        -0.0357         0.9513
    550.00         0.9760        -0.0286        -0.0353        -0.0286         1.0210        -0.0351        -0.0353        -0.0351         0.9342
    560.00         0.9588        -0.0281        -0.0346        -0.0281         1.0030        -0.0344        -0.0346        -0.0344         0.9177
    570.00         0.9422        -0.0276        -0.0340        -0.0276         0.9856        -0.0338        -0.0340        -0.0338         0.9018
    580.00         0.9261        -0.0272        -0.0334        -0.0272         0.9688        -0.0332        -0.0334        -0.0332         0.8864
    590.00         0.9106        -0.0267        -0.0329        -0.0267         0.9526        -0.0326        -0.0329        -0.0326         0.8715
    600.00         0.8956        -0.0263        -0.0323        -0.0263         0.9369        -0.0321        -0.0323        -0.0321         0.8572
    610.00         0.8811        -0.0258        -0.0318        -0.0258         0.9217        -0.0316        -0.0318        -0.0316         0.8432
    620.00         0.8670        -0.0254        -0.0313        -0.0254         0.9070        -0.0310        -0.0313        -0.0310         0.8298
    630.00         0.8534        -0.0250        -0.0308        -0.0250         0.8927        -0.0305        -0.0308        -0.0305         0.8167
    640.00         0.8402        -0.0246        -0.0303        -0.0246         0.8789        -0.0301        -0.0303        -0.0301         0.8040
    650.00         0.8273        -0.0243        -0.0298        -0.0243         0.8655        -0.0296        -0.0298        -0.0296         0.7918
    660.00         0.8149        -0.0239        -0.0294        -0.0239         0.8525        -0.0291        -0.0294        -0.0291         0.7799
    670.00         0.8029        -0.0235        -0.0289        -0.0235         0.8399        -0.0287        -0.0289        -0.0287         0.7683
    680.00         0.7911        -0.0232        -0.0285        -0.0232         0.8277        -0.0283        -0.0285        -0.0283         0.7571
    690.00         0.7798        -0.0229        -0.0281        -0.0229         0.8158        -0.0278        -0.0281        -0.0278         0.7462
    700.00         0.7687        -0.0225        -0.0277        -0.0225         0.8042        -0.0274        -0.0277        -0.0274         0.7356
    710.00         0.7580        -0.0222        -0.0273        -0.0222         0.7930        -0.0270        -0.0273        -0.0270         0.7253
    720.00         0.7475        -0.0219        -0.0269        -0.0219         0.7821        -0.0267        -0.0269        -0.0267         0.7153
    730.00         0.7374        -0.0216        -0.0265        -0.0216         0.7714        -0.0263        -0.0265        -0.0263         0.7056
    740.00         0.7275        -0.0213        -0.0262        -0.0213         0.7611        -0.0259        -0.0262        -0.0259         0.6961
    750.00         0.7178        -0.0210        -0.0258        -0.0210         0.7510        -0.0256        -0.0258        -0.0256         0.6869
    760.00         0.7084        -0.0208        -0.0255        -0.0208         0.7412        -0.0252        -0.0255        -0.0252         0.6779
    770.00         0.6993        -0.0205        -0.0252        -0.0205         0.7316        -0.0249        -0.0252        -0.0249         0.6692
    780.00         0.6904        -0.0202        -0.0248        -0.0202         0.7223        -0.0246        -0.0248        -0.0246         0.6606
    790.00         0.6817        -0.0200        -0.0245        -0.0200         0.7132        -0.0243        -0.0245        -0.0243         0.6523
    800.00         0.6732        -0.0197        -0.0242        -0.0197         0.7044        -0.0240        -0.0242        -0.0240         0.6442
    810.00         0.6650        -0.0195        -0.0239        -0.0195         0.6957        -0.0237        -0.0239        -0.0237         0.6363
    820.00         0.6569        -0.0192        -0.0236        -0.0192         0.6873        -0.0234        -0.0236        -0.0234         0.6286
    830.00         0.6490        -0.0190        -0.0233        -0.0190         0.6791        -0.0231        -0.0233        -0.0231         0.6210
    840.00         0.6414        -0.0188        -0.0231        -0.0188         0.6710        -0.0228        -0.0231        -0.0228         0.6137
    850.00         0.6338        -0.0186        -0.0228        -0.0186         0.6632        -0.0225        -0.0228        -0.0225         0.6065
    860.00         0.6265        -0.0184        -0.0225        -0.0184         0.6555        -0.0223        -0.0225        -0.0223         0.5995
    870.00         0.6193        -0.0181        -0.0223        -0.0181         0.6480        -0.0220        -0.0223        -0.0220         0.5926
    880.00         0.6123        -0.0179        -0.0220        -0.0179         0.6407        -0.0218        -0.0220        -0.0218         0.5859
    890.00         0.6055        -0.0177        -0.0218        -0.0177         0.6335        -0.0215        -0.0218        -0.0215         0.5794
    900.00         0.5988        -0.0175        -0.0215        -0.0175         0.6265        -0.0213        -0.0215        -0.0213         0.5729
    910.00         0.5923        -0.0173        -0.0213        -0.0173         0.6197        -0.0210        -0.0213        -0.0210         0.5667
    920.00         0.5858        -0.0172        -0.0210        -0.0172         0.6130        -0.0208        -0.0210        -0.0208         0.5605
    930.00         0.5796        -0.0170        -0.0208        -0.0170         0.6064        -0.0206        -0.0208        -0.0206         0.5545
    940.00         0.5734        -0.0168        -0.0206        -0.0168         0.6000        -0.0204        -0.0206        -0.0204         0.5487
    950.00         0.5674        -0.0166        -0.0204        -0.0166         0.5937        -0.0202        -0.0204        -0.0202         0.5429
    960.00         0.5615        -0.0164        -0.0202        -0.0164         0.5875        -0.0199        -0.0202        -0.0199         0.5373
    970.00         0.5558        -0.0163        -0.0200        -0.0163         0.5815        -0.0197        -0.0200        -0.0197         0.5318
    980.00         0.5501        -0.0161        -0.0198        -0.0161         0.5756        -0.0195        -0.0198        -0.0195         0.5263
    990.00         0.5446        -0.0159        -0.0196        -0.0159         0.5698        -0.0193        -0.0196        -0.0193         0.5211
   1000.00         0.5392        -0.0158        -0.0194        -0.0158         0.5641        -0.0191        -0.0194        -0.0191         0.5159
