# Temperature [K], Thermal Conductivity (xx, xy, xz, yx, yy, yz, zx, zy, zz) [W/mK]
      0.00         0.0000         0.0000         0.0000         0.0000         0.0000         0.0000         0.0000         0.0000         0.0000
     10.00       923.7403         0.0002         0.0000         0.0002       923.7324         0.0000         0.0000         0.0000      1011.8975
     20.00       344.6647         0.0173         0.0000         0.0173       344.6830         0.0000         0.0000         0.0000       441.2719
     30.00       175.1687         0.0490         0.0000         0.0490       175.2263         0.0000         0.0000         0.0000       209.8620
     40.00       107.7996         0.0697         0.0000         0.0697       107.8825         0.0000         0.0000         0.0000       116.8823
     50.00        77.6558         0.0781         0.0000         0.0781        77.7488         0.0000         0.0000         0.0000        78.9645
     60.00        61.8484         0.0793         0.0000         0.0793        61.9430         0.0000         0.0000         0.0000        60.8211
     70.00        52.2182         0.0771         0.0000         0.0771        52.3101         0.0000         0.0000         0.0000        50.4976
     80.00        45.6279         0.0734         0.0000         0.0734        45.7154         0.0000         0.0000         0.0000        43.7493
     90.00        40.7343         0.0692         0.0000         0.0692        40.8168         0.0000         0.0000         0.0000        38.8813
    100.00        36.8944         0.0650         0.0000         0.0650        36.9719         0.0000         0.0000         0.0000        35.1288
    110.00        33.7664         0.0611         0.0000         0.0611        33.8392         0.0000         0.0000         0.0000        32.1050
    120.00        31.1508         0.0574         0.0000         0.0574        31.2192         0.0000         0.0000         0.0000        29.5934
    130.00        28.9217         0.0540         0.0000         0.0540        28.9861         0.0000         0.0000         0.0000        27.4620
    140.00        26.9944         0.0510         0.0000         0.0510        27.0552         0.0000         0.0000         0.0000        25.6241
    150.00        25.3090         0.0482         0.0000         0.0482        25.3664         0.0000         0.0000         0.0000        24.0196
    160.00        23.8212         0.0456         0.0000         0.0456        23.8756         0.0000         0.0000         0.0000        22.6050
    170.00        22.4977         0.0433         0.0000         0.0433        22.5493         0.0000         0.0000         0.0000        21.3475
    180.00        21.3122         0.0412         0.0000         0.0412        21.3614         0.0000         0.0000         0.0000        20.2217
    190.00        20.2442         0.0393         0.0000         0.0393        20.2911         0.0000         0.0000         0.0000        19.2079
    200.00        19.2770         0.0375         0.0000         0.0375        19.3218         0.0000         0.0000         0.0000        18.2900
    210.00        18.3970         0.0359         0.0000         0.0359        18.4398         0.0000         0.0000         0.0000        17.4549
    220.00        17.5929         0.0344         0.0000         0.0344        17.6339         0.0000         0.0000         0.0000        16.6920
    230.00        16.8553         0.0330         0.0000         0.0330        16.8947         0.0000         0.0000         0.0000        15.9923
    240.00        16.1765         0.0318         0.0000         0.0318        16.2143         0.0000         0.0000         0.0000        15.3483
    250.00        15.5496         0.0306         0.0000         0.0306        15.5860         0.0000         0.0000         0.0000        14.7536
    260.00        14.9689         0.0295         0.0000         0.0295        15.0041         0.0000         0.0000         0.0000        14.2029
    270.00        14.4297         0.0284         0.0000         0.0284        14.4636         0.0000         0.0000         0.0000        13.6913
    280.00        13.9275         0.0275         0.0000         0.0275        13.9603         0.0000         0.0000         0.0000        13.2150
    290.00        13.4588         0.0266         0.0000         0.0266        13.4905         0.0000         0.0000         0.0000        12.7704
    300.00        13.0204         0.0257         0.0000         0.0257        13.0511         0.0000         0.0000         0.0000        12.3545
    310.00        12.6094         0.0249         0.0000         0.0249        12.6391         0.0000         0.0000         0.0000        11.9645
    320.00        12.2233         0.0242         0.0000         0.0242        12.2521         0.0000         0.0000         0.0000        11.5983
    330.00        11.8599         0.0235         0.0000         0.0235        11.8879         0.0000         0.0000         0.0000        11.2536
    340.00        11.5174         0.0228         0.0000         0.0228        11.5446         0.0000         0.0000         0.0000        10.9287
    350.00        11.1940         0.0222         0.0000         0.0222        11.2204         0.0000         0.0000         0.0000        10.6219
    360.00        10.8881         0.0216         0.0000         0.0216        10.9138         0.0000         0.0000         0.0000        10.3317
    370.00        10.5983         0.0210         0.0000         0.0210        10.6234         0.0000         0.0000         0.0000        10.0568
    380.00        10.3235         0.0205         0.0000         0.0205        10.3479         0.0000         0.0000         0.0000         9.7961
    390.00        10.0625         0.0200         0.0000         0.0200        10.0863         0.0000         0.0000         0.0000         9.5485
    400.00         9.8143         0.0195         0.0000         0.0195         9.8375         0.0000         0.0000         0.0000         9.3130
    410.00         9.5780         0.0190         0.0000         0.0190         9.6007         0.0000         0.0000         0.0000         9.0888
    420.00         9.3527         0.0186         0.0000         0.0186         9.3749         0.0000         0.0000         0.0000         8.8750
    430.00         9.1377         0.0182         0.0000         0.0182         9.1594         0.0000         0.0000         0.0000         8.6711
    440.00         8.9324         0.0178         0.0000         0.0178         8.9535         0.0000         0.0000         0.0000         8.4762
    450.00         8.7360         0.0174         0.0000         0.0174         8.7567         0.0000         0.0000         0.0000         8.2899
    460.00         8.5480         0.0170         0.0000         0.0170         8.5683         0.0000         0.0000         0.0000         8.1116
    470.00         8.3679         0.0166         0.0000         0.0166         8.3877         0.0000         0.0000         0.0000         7.9407
    480.00         8.1952         0.0163         0.0000         0.0163         8.2146         0.0000         0.0000         0.0000         7.7769
    490.00         8.0295         0.0160         0.0000         0.0160         8.0485         0.0000         0.0000         0.0000         7.6196
    500.00         7.8703         0.0157         0.0000         0.0157         7.8890         0.0000         0.0000         0.0000         7.4686
    510.00         7.7173         0.0154         0.0000         0.0154         7.7356         0.0000         0.0000         0.0000         7.3234
    520.00         7.5700         0.0151         0.0000         0.0151         7.5880         0.0000         0.0000         0.0000         7.1837
    530.00         7.4283         0.0148         0.0000         0.0148         7.4459         0.0000         0.0000         0.0000         7.0492
    540.00         7.2918         0.0145         0.0000         0.0145         7.3091         0.0000         0.0000         0.0000         6.9197
    550.00         7.1602         0.0143         0.0000         0.0143         7.1772         0.0000         0.0000         0.0000         6.7948
    560.00         7.0332         0.0140         0.0000         0.0140         7.0499         0.0000         0.0000         0.0000         6.6743
    570.00         6.9106         0.0138         0.0000         0.0138         6.9270         0.0000         0.0000         0.0000         6.5580
    580.00         6.7923         0.0135         0.0000         0.0135         6.8084         0.0000         0.0000         0.0000         6.4457
    590.00         6.6779         0.0133         0.0000         0.0133         6.6937         0.0000         0.0000         0.0000         6.3371
    600.00         6.5672         0.0131         0.0000         0.0131         6.5828         0.0000         0.0000         0.0000         6.2322
    610.00         6.4602         0.0129         0.0000         0.0129         6.4756         0.0000         0.0000         0.0000         6.1306
    620.00         6.3566         0.0127         0.0000         0.0127         6.3717         0.0000         0.0000         0.0000         6.0323
    630.00         6.2563         0.0125         0.0000         0.0125         6.2711         0.0000         0.0000         0.0000         5.9371
    640.00         6.1591         0.0123         0.0000         0.0123         6.1737         0.0000         0.0000         0.0000         5.8449
    650.00         6.0648         0.0121         0.0000         0.0121         6.0792         0.0000         0.0000         0.0000         5.7554
    660.00         5.9734         0.0119         0.0000         0.0119         5.9876         0.0000         0.0000         0.0000         5.6687
    670.00         5.8846         0.0117         0.0000         0.0117         5.8986         0.0000         0.0000         0.0000         5.5845
    680.00         5.7985         0.0116         0.0000         0.0116         5.8123         0.0000         0.0000         0.0000         5.5027
    690.00         5.7149         0.0114         0.0000         0.0114         5.7285         0.0000         0.0000         0.0000         5.4234
    700.00         5.6336         0.0112         0.0000         0.0112         5.6470         0.0000         0.0000         0.0000         5.3462
    710.00         5.5546         0.0111         0.0000         0.0111         5.5678         0.0000         0.0000         0.0000         5.2713
    720.00         5.4778         0.0109         0.0000         0.0109         5.4908         0.0000         0.0000         0.0000         5.1984
    730.00         5.4031         0.0108         0.0000         0.0108         5.4159         0.0000         0.0000         0.0000         5.1275
    740.00         5.3303         0.0106         0.0000         0.0106         5.3430         0.0000         0.0000         0.0000         5.0585
    750.00         5.2595         0.0105         0.0000         0.0105         5.2721         0.0000         0.0000         0.0000         4.9913
    760.00         5.1906         0.0104         0.0000         0.0104         5.2030         0.0000         0.0000         0.0000         4.9259
    770.00         5.1234         0.0102         0.0000         0.0102         5.1356         0.0000         0.0000         0.0000         4.8622
    780.00         5.0580         0.0101         0.0000         0.0101         5.0700         0.0000         0.0000         0.0000         4.8000
    790.00         4.9942         0.0100         0.0000         0.0100         5.0061         0.0000         0.0000         0.0000         4.7395
    800.00         4.9320         0.0098         0.0000         0.0098         4.9437         0.0000         0.0000         0.0000         4.6805
    810.00         4.8713         0.0097         0.0000         0.0097         4.8829         0.0000         0.0000         0.0000         4.6229
    820.00         4.8121         0.0096         0.0000         0.0096         4.8235         0.0000         0.0000         0.0000         4.5667
    830.00         4.7543         0.0095         0.0000         0.0095         4.7656         0.0000         0.0000         0.0000         4.5119
    840.00         4.6979         0.0094         0.0000         0.0094         4.7091         0.0000         0.0000         0.0000         4.4583
    850.00         4.6428         0.0093         0.0000         0.0093         4.6538         0.0000         0.0000         0.0000         4.4060
    860.00         4.5890         0.0092         0.0000         0.0092         4.5999         0.0000         0.0000         0.0000         4.3550
    870.00         4.5364         0.0090         0.0000         0.0090         4.5472         0.0000         0.0000         0.0000         4.3050
    880.00         4.4850         0.0089         0.0000         0.0089         4.4956         0.0000         0.0000         0.0000         4.2563
    890.00         4.4347         0.0088         0.0000         0.0088         4.4453         0.0000         0.0000         0.0000         4.2086
    900.00         4.3856         0.0087         0.0000         0.0087         4.3960         0.0000         0.0000         0.0000         4.1620
    910.00         4.3375         0.0087         0.0000         0.0087         4.3478         0.0000         0.0000         0.0000         4.1163
    920.00         4.2905         0.0086         0.0000         0.0086         4.3007         0.0000         0.0000         0.0000         4.0717
    930.00         4.2445         0.0085         0.0000         0.0085         4.2546         0.0000         0.0000         0.0000         4.0281
    940.00         4.1994         0.0084         0.0000         0.0084         4.2094         0.0000         0.0000         0.0000         3.9853
    950.00         4.1553         0.0083         0.0000         0.0083         4.1652         0.0000         0.0000         0.0000         3.9435
    960.00         4.1122         0.0082         0.0000         0.0082         4.1219         0.0000         0.0000         0.0000         3.9025
    970.00         4.0699         0.0081         0.0000         0.0081         4.0796         0.0000         0.0000         0.0000         3.8624
    980.00         4.0284         0.0080         0.0000         0.0080         4.0380         0.0000         0.0000         0.0000         3.8230
    990.00         3.9878         0.0080         0.0000         0.0080         3.9973         0.0000         0.0000         0.0000         3.7845
   1000.00         3.9480         0.0079         0.0000         0.0079         3.9574         0.0000         0.0000         0.0000         3.7467
