# k-axis, Phonon energy [meV], band-1, band-2, band-3, band-4, band-5, band-6, band-7
     1     0.000000    0.000000     0.000000     0.000000 
     2     0.016716    0.346181     0.346181     0.673824 
     3     0.033432    0.691971     0.691971     1.345960 
     4     0.050148    1.036976     1.036976     2.014731 
     5     0.066864    1.380807     1.380807     2.678473 
     6     0.083581    1.723077     1.723077     3.335548 
     7     0.100297    2.063402     2.063402     3.984350 
     8     0.117013    2.401400     2.401400     4.623313 
     9     0.133729    2.736699     2.736699     5.250920 
    10     0.150445    3.068925     3.068925     5.865708 
    11     0.167161    3.397718     3.397718     6.466277 
    12     0.183877    3.722720     3.722720     7.051298 
    13     0.200593    4.043582     4.043582     7.619517 
    14     0.217309    4.359963     4.359963     8.169765 
    15     0.234025    4.671530     4.671530     8.700961 
    16     0.250742    4.977963     4.977963     9.212119 
    17     0.267458    5.278946     5.278946     9.702359 
    18     0.284174    5.574176     5.574176    10.170898 
    19     0.300890    5.863360     5.863360    10.617069 
    20     0.317606    6.146218     6.146218    11.040322 
    21     0.334322    6.422479     6.422479    11.440220 
    22     0.351038    6.691881     6.691881    11.816448 
    23     0.367754    6.954178     6.954178    12.168819 
    24     0.384470    7.209132     7.209132    12.497271 
    25     0.401187    7.456518     7.456518    12.801852 
    26     0.417903    7.696124     7.696124    13.082779 
    27     0.434619    7.927746     7.927746    13.340335 
    28     0.451335    8.151194     8.151194    13.574992 
    29     0.468051    8.366288     8.366288    13.787283 
    30     0.484767    8.572861     8.572861    13.977914 
    31     0.501483    8.770756     8.770756    14.147668 
    32     0.518199    8.959823     8.959823    14.297460 
    33     0.534915    9.139928     9.139928    14.428284 
    34     0.551631    9.310946     9.310946    14.541255 
    35     0.568348    9.472758     9.472758    14.637538 
    36     0.585064    9.625257     9.625257    14.718410 
    37     0.601780    9.768346     9.768346    14.785173 
    38     0.618496    9.901933     9.901933    14.839203 
    39     0.635212   10.025939    10.025939    14.881865 
    40     0.651928   10.140288    10.140288    14.914571 
    41     0.668644   10.244916    10.244916    14.938722 
    42     0.685360   10.339763    10.339763    14.955670 
    43     0.702076   10.424778    10.424778    14.966742 
    44     0.718793   10.499913    10.499913    14.973201 
    45     0.735509   10.565131    10.565131    14.976214 
    46     0.752225   10.620395    10.620395    14.976834 
    47     0.768941   10.665680    10.665680    14.975991 
    48     0.785657   10.700962    10.700962    14.974478 
    49     0.802373   10.726223    10.726223    14.972928 
    50     0.819089   10.741452    10.741452    14.971800 
    51     0.835805   10.746641    10.746641    14.971391 
    52     0.835805   10.746640    10.746646    14.971391 
    53     0.859445   10.737326    10.762897    14.963419 
    54     0.883086   10.710058    10.810179    14.940098 
    55     0.906726   10.665037    10.887262    14.901516 
    56     0.930366   10.602611    10.992180    14.847882 
    57     0.954006   10.523280    11.122349    14.779445 
    58     0.977646   10.427717    11.274688    14.696540 
    59     1.001286   10.316780    11.445764    14.599488 
    60     1.024926   10.191528    11.631929    14.488712 
    61     1.048567   10.053239    11.829438    14.364596 
    62     1.072207    9.903418    12.034553    14.227548 
    63     1.095847    9.743800    12.243620    14.077966 
    64     1.119487    9.576338    12.453122    13.916185 
    65     1.143127    9.403190    12.659722    13.742538 
    66     1.166767    9.226675    12.860259    13.557287 
    67     1.190407    9.049223    13.051771    13.360655 
    68     1.214048    8.873306    13.152790    13.231431 
    69     1.237688    8.701330    12.933780    13.396597 
    70     1.261328    8.535548    12.703648    13.544765 
    71     1.284968    8.377920    12.462370    13.673506 
    72     1.308608    8.229998    12.209896    13.780489 
    73     1.332248    8.092802    11.946110    13.863419 
    74     1.355888    7.966718    11.670892    13.920078 
    75     1.379529    7.851420    11.384115    13.948283 
    76     1.403169    7.745844    11.085656    13.945841 
    77     1.426809    7.648186    10.775414    13.910655 
    78     1.450449    7.555964    10.453328    13.840644 
    79     1.474089    7.466112    10.119377    13.733810 
    80     1.497729    7.375107     9.773604    13.588245 
    81     1.521369    7.279121     9.416115    13.402188 
    82     1.545010    7.174175     9.047088    13.174016 
    83     1.568650    7.056286     8.666775    12.902313 
    84     1.592290    6.921622     8.275503    12.585916 
    85     1.615930    6.766615     7.873670    12.223901 
    86     1.639570    6.588073     7.461740    11.815676 
    87     1.663210    6.383258     7.040241    11.360983 
    88     1.686850    6.149949     6.609748    10.859934 
    89     1.710491    5.886491     6.170880    10.313033 
    90     1.734131    5.591819     5.724286     9.721199 
    91     1.757771    5.265467     5.270634     9.085764 
    92     1.781411    4.810604     4.907569     8.408492 
    93     1.805051    4.344874     4.518849     7.691568 
    94     1.828691    3.874111     4.100593     6.937591 
    95     1.852331    3.398969     3.654618     6.149552 
    96     1.875972    2.920075     3.183239     5.330816 
    97     1.899612    2.438036     2.689209     4.485087 
    98     1.923252    1.953428     2.175680     3.616374 
    99     1.946892    1.466801     1.646138     2.728946 
   100     1.970532    0.978684     1.104343     1.827289 
   101     1.994172    0.489586     0.554261     0.916054 
   102     2.017812    0.000000     0.000000     0.000000 
   103     2.017812    0.000000     0.000000     0.000000 
   104     2.032289    0.326931     0.326931     0.553649 
   105     2.046766    0.653102     0.653102     1.106306 
   106     2.061242    0.977757     0.977757     1.656984 
   107     2.075719    1.300147     1.300147     2.204705 
   108     2.090195    1.619535     1.619535     2.748503 
   109     2.104672    1.935196     1.935196     3.287428 
   110     2.119148    2.246426     2.246426     3.820553 
   111     2.133625    2.552540     2.552540     4.346977 
   112     2.148102    2.852879     2.852879     4.865826 
   113     2.162578    3.146812     3.146812     5.376260 
   114     2.177055    3.433739     3.433739     5.877474 
   115     2.191531    3.713093     3.713093     6.368705 
   116     2.206008    3.984346     3.984346     6.849230 
   117     2.220484    4.247011     4.247011     7.318375 
   118     2.234961    4.500636     4.500636     7.775510 
   119     2.249438    4.744824     4.744824     8.220057 
   120     2.263914    4.979217     4.979217     8.651493 
   121     2.278391    5.203506     5.203506     9.069347 
   122     2.292867    5.417438     5.417438     9.473201 
   123     2.307344    5.620806     5.620806     9.862701 
   124     2.321820    5.813457     5.813457    10.237541 
   125     2.336297    5.995293     5.995293    10.597478 
   126     2.350774    6.166269     6.166269    10.942326 
   127     2.365250    6.326393     6.326394    11.271954 
   128     2.379727    6.475732     6.475732    11.586287 
   129     2.394203    6.614399     6.614399    11.885303 
   130     2.408680    6.742564     6.742564    12.169035 
   131     2.423156    6.860448     6.860448    12.437562 
   132     2.437633    6.968321     6.968321    12.691014 
   133     2.452110    7.066497     7.066497    12.929577 
   134     2.466586    7.155335     7.155336    13.153447 
   135     2.481063    7.235237     7.235237    13.362874 
   136     2.495539    7.306640     7.306640    13.558155 
   137     2.510016    7.370010     7.370010    13.739588 
   138     2.524492    7.425844     7.425844    13.907518 
   139     2.538969    7.474659     7.474659    14.062295 
   140     2.553446    7.516987     7.516987    14.204277 
   141     2.567922    7.553369     7.553369    14.333836 
   142     2.582399    7.584348     7.584348    14.451344 
   143     2.596875    7.610463     7.610463    14.557186 
   144     2.611352    7.632239     7.632239    14.651708 
   145     2.625828    7.650180     7.650180    14.735246 
   146     2.640305    7.664765     7.664765    14.808146 
   147     2.654782    7.676436     7.676436    14.870694 
   148     2.669258    7.685592     7.685592    14.923150 
   149     2.683735    7.692585     7.692585    14.965775 
   150     2.698211    7.697709     7.697710    14.998741 
   151     2.712688    7.701204     7.701204    15.022223 
   152     2.727164    7.703238     7.703238    15.036319 
   153     2.741641    7.703919     7.703919    15.041117 
