# k-axis, Phonon energy [meV], band-1, band-2, band-3, band-4, band-5, band-6, band-7
     1     0.000000    0.000000     0.000000     0.000000 
     2     0.019349    0.443154     0.443154     0.898035 
     3     0.038697    0.886696     0.886696     1.794544 
     4     0.058046    1.331002     1.331002     2.688007 
     5     0.077395    1.776430     1.776430     3.576918 
     6     0.096744    2.223301     2.223301     4.459789 
     7     0.116092    2.671900     2.671900     5.335158 
     8     0.135441    3.122459     3.122459     6.201595 
     9     0.154790    3.575151     3.575151     7.057707 
    10     0.174139    4.030085     4.030085     7.902144 
    11     0.193487    4.487304     4.487304     8.733605 
    12     0.212836    4.946766     4.946766     9.550844 
    13     0.232185    5.408360     5.408360    10.352670 
    14     0.251534    5.871886     5.871886    11.137959 
    15     0.270882    6.337068     6.337068    11.905651 
    16     0.290231    6.803543     6.803543    12.654763 
    17     0.309580    7.270870     7.270870    13.384372 
    18     0.328928    7.738530     7.738530    14.093637 
    19     0.348277    8.205924     8.205924    14.781813 
    20     0.367626    8.672382     8.672382    15.448218 
    21     0.386975    9.137169     9.137169    16.092244 
    22     0.406323    9.599484     9.599484    16.713397 
    23     0.425672   10.058469    10.058469    17.311216 
    24     0.445021   10.513216    10.513216    17.885355 
    25     0.464370   10.962772    10.962772    18.435566 
    26     0.483718   11.406143    11.406143    18.961625 
    27     0.503067   11.842306    11.842306    19.463422 
    28     0.522416   12.270213    12.270213    19.940918 
    29     0.541765   12.688795    12.688795    20.394127 
    30     0.561113   13.096974    13.096974    20.823148 
    31     0.580462   13.493686    13.493686    21.228116 
    32     0.599811   13.877825    13.877825    21.609230 
    33     0.619159   14.248340    14.248340    21.966752 
    34     0.638508   14.604175    14.604175    22.300977 
    35     0.657857   14.944301    14.944301    22.612216 
    36     0.677206   15.267728    15.267728    22.900854 
    37     0.696554   15.573475    15.573475    23.167238 
    38     0.715903   15.860625    15.860625    23.411800 
    39     0.735252   16.128298    16.128298    23.634915 
    40     0.754601   16.375675    16.375675    23.837015 
    41     0.773949   16.601976    16.601976    24.018472 
    42     0.793298   16.806481    16.806481    24.179683 
    43     0.812647   16.988558    16.988558    24.321008 
    44     0.831996   17.147612    17.147612    24.442781 
    45     0.851344   17.283147    17.283147    24.545325 
    46     0.870693   17.394716    17.394716    24.628900 
    47     0.890042   17.481961    17.481961    24.693717 
    48     0.909390   17.544596    17.544596    24.739973 
    49     0.928739   17.582422    17.582422    24.767795 
    50     0.948088   17.595316    17.595316    24.777254 
    51     0.948088   17.595316    17.595328    24.777254 
    52     0.975451   17.557986    17.608941    24.754182 
    53     1.002814   17.449119    17.649235    24.686612 
    54     1.030178   17.270910    17.717077    24.575018 
    55     1.057541   17.026992    17.813732    24.420204 
    56     1.084904   16.722348    17.940675    24.223237 
    57     1.112267   16.363240    18.099270    23.985493 
    58     1.139631   15.957094    18.290484    23.708621 
    59     1.166994   15.512340    18.514578    23.394480 
    60     1.194357   15.038253    18.770820    23.045130 
    61     1.221720   14.544738    19.057288    22.662825 
    62     1.249084   14.042000    19.370772    22.249959 
    63     1.276447   13.540253    19.706708    21.809012 
    64     1.303810   13.049317    20.059220    21.342562 
    65     1.331173   12.578168    20.421353    20.853176 
    66     1.358537   12.134462    20.343444    20.785173 
    67     1.385900   11.724110    19.815885    21.142049 
    68     1.413263   11.350829    19.272964    21.482944 
    69     1.440626   11.015893    18.717013    21.798635 
    70     1.467989   10.718039    18.150213    22.079995 
    71     1.495353   10.453592    17.574587    22.318185 
    72     1.522716   10.216809    16.991967    22.504899 
    73     1.550079   10.000397    16.403980    22.632512 
    74     1.577442    9.796126    15.812025    22.694229 
    75     1.604806    9.595471    15.217268    22.684174 
    76     1.632169    9.390186    14.620676    22.597475 
    77     1.659532    9.172789    14.022993    22.430325 
    78     1.686895    8.936914    13.424728    22.179985 
    79     1.714259    8.677537    12.826252    21.844792 
    80     1.741622    8.391105    12.227712    21.424128 
    81     1.768985    8.075549    11.629150    20.918352 
    82     1.796348    7.730246    11.030463    20.328802 
    83     1.823712    7.355916    10.431463    19.657637 
    84     1.851075    6.954483     9.831889    18.907781 
    85     1.878438    6.528911     9.231440    18.082855 
    86     1.905801    6.083007     8.629799    17.187013 
    87     1.933165    5.621223     8.026655    16.224853 
    88     1.960528    5.148444     7.421719    15.201312 
    89     1.987891    4.669754     6.814750    14.121582 
    90     2.015254    4.190209     6.205561    12.990947 
    91     2.042618    3.714601     5.594026    11.814742 
    92     2.069981    3.247222     4.980098    10.598260 
    93     2.097344    2.791633     4.363802     9.346680 
    94     2.124707    2.350445     3.745237     8.065023 
    95     2.152071    1.925144     3.124577     6.758116 
    96     2.179434    1.515946     2.502058     5.430584 
    97     2.206797    1.121747     1.877977     4.086844 
    98     2.234160    0.740163     1.252680     2.731129 
    99     2.261523    0.367692     0.626551     1.367524 
   100     2.288887    0.000000     0.000000     0.000000 
   101     2.288887    0.000000     0.000000     0.000000 
   102     2.305643    0.287707     0.287707     0.856715 
   103     2.322400    0.575859     0.575859     1.712520 
   104     2.339156    0.864893     0.864893     2.566503 
   105     2.355913    1.155221     1.155221     3.417759 
   106     2.372669    1.447225     1.447225     4.265384 
   107     2.389426    1.741247     1.741247     5.108477 
   108     2.406182    2.037575     2.037575     5.946144 
   109     2.422939    2.336448     2.336448     6.777497 
   110     2.439695    2.638033     2.638033     7.601654 
   111     2.456452    2.942435     2.942435     8.417745 
   112     2.473208    3.249686     3.249686     9.224907 
   113     2.489965    3.559744     3.559745    10.022288 
   114     2.506721    3.872492     3.872493    10.809049 
   115     2.523478    4.187739     4.187739    11.584364 
   116     2.540234    4.505220     4.505220    12.347421 
   117     2.556991    4.824599     4.824599    13.097421 
   118     2.573747    5.145469     5.145470    13.833589 
   119     2.590504    5.467364     5.467364    14.555153 
   120     2.607260    5.789752     5.789753    15.261368 
   121     2.624017    6.112049     6.112050    15.951515 
   122     2.640773    6.433619     6.433620    16.624887 
   123     2.657530    6.753782     6.753782    17.280791 
   124     2.674286    7.071817     7.071818    17.918581 
   125     2.691043    7.386973     7.386973    18.537589 
   126     2.707799    7.698467     7.698469    19.137218 
   127     2.724556    8.005501     8.005503    19.716862 
   128     2.741312    8.307255     8.307256    20.275974 
   129     2.758069    8.602903     8.602904    20.813973 
   130     2.774825    8.891611     8.891613    21.330375 
   131     2.791582    9.172551     9.172552    21.824658 
   132     2.808338    9.444897     9.444898    22.296365 
   133     2.825095    9.707837     9.707837    22.745048 
   134     2.841851    9.960573     9.960574    23.170300 
   135     2.858608   10.202330    10.202332    23.571722 
   136     2.875364   10.432358    10.432359    23.948944 
   137     2.892121   10.649934    10.649935    24.301630 
   138     2.908877   10.854372    10.854372    24.629458 
   139     2.925633   11.045017    11.045019    24.932155 
   140     2.942390   11.221261    11.221262    25.209436 
   141     2.959146   11.382534    11.382536    25.461066 
   142     2.975903   11.528313    11.528314    25.686833 
   143     2.992659   11.658123    11.658125    25.886540 
   144     3.009416   11.771540    11.771543    26.060013 
   145     3.026172   11.868194    11.868195    26.207116 
   146     3.042929   11.947765    11.947768    26.327711 
   147     3.059685   12.009993    12.009996    26.421713 
   148     3.076442   12.054673    12.054675    26.489046 
   149     3.093198   12.081658    12.081659    26.529637 
   150     3.109955   12.090856    12.090856    26.543461 
