# Temperature [K], Thermal Conductivity (xx, xy, xz, yx, yy, yz, zx, zy, zz) [W/mK]
      0.00         0.0000         0.0000         0.0000         0.0000         0.0000         0.0000         0.0000         0.0000         0.0000
     10.00       173.7966         0.0001         0.0001         0.0001       173.7966         0.0001         0.0001         0.0001       173.7966
     20.00        69.5621         0.0002         0.0002         0.0002        69.5621         0.0002         0.0002         0.0002        69.5621
     30.00        35.7175         0.0000         0.0000         0.0000        35.7175         0.0000         0.0000         0.0000        35.7175
     40.00        24.9322        -0.0001        -0.0001        -0.0001        24.9322        -0.0001        -0.0001        -0.0001        24.9322
     50.00        19.9189        -0.0003        -0.0003        -0.0003        19.9189        -0.0003        -0.0003        -0.0003        19.9189
     60.00        16.8617        -0.0003        -0.0003        -0.0003        16.8617        -0.0003        -0.0003        -0.0003        16.8617
     70.00        14.7040        -0.0004        -0.0004        -0.0004        14.7040        -0.0004        -0.0004        -0.0004        14.7040
     80.00        13.0599        -0.0004        -0.0004        -0.0004        13.0599        -0.0004        -0.0004        -0.0004        13.0599
     90.00        11.7513        -0.0004        -0.0004        -0.0004        11.7513        -0.0004        -0.0004        -0.0004        11.7513
    100.00        10.6800        -0.0004        -0.0004        -0.0004        10.6800        -0.0004        -0.0004        -0.0004        10.6800
    110.00         9.7855        -0.0003        -0.0003        -0.0003         9.7855        -0.0003        -0.0003        -0.0003         9.7855
    120.00         9.0268        -0.0003        -0.0003        -0.0003         9.0268        -0.0003        -0.0003        -0.0003         9.0268
    130.00         8.3753        -0.0003        -0.0003        -0.0003         8.3753        -0.0003        -0.0003        -0.0003         8.3753
    140.00         7.8099        -0.0003        -0.0003        -0.0003         7.8099        -0.0003        -0.0003        -0.0003         7.8099
    150.00         7.3148        -0.0003        -0.0003        -0.0003         7.3148        -0.0003        -0.0003        -0.0003         7.3148
    160.00         6.8777        -0.0003        -0.0003        -0.0003         6.8777        -0.0003        -0.0003        -0.0003         6.8777
    170.00         6.4891        -0.0003        -0.0003        -0.0003         6.4891        -0.0003        -0.0003        -0.0003         6.4891
    180.00         6.1414        -0.0003        -0.0003        -0.0003         6.1414        -0.0003        -0.0003        -0.0003         6.1414
    190.00         5.8287        -0.0002        -0.0002        -0.0002         5.8287        -0.0002        -0.0002        -0.0002         5.8287
    200.00         5.5458        -0.0002        -0.0002        -0.0002         5.5458        -0.0002        -0.0002        -0.0002         5.5458
    210.00         5.2888        -0.0002        -0.0002        -0.0002         5.2888        -0.0002        -0.0002        -0.0002         5.2888
    220.00         5.0544        -0.0002        -0.0002        -0.0002         5.0544        -0.0002        -0.0002        -0.0002         5.0544
    230.00         4.8396        -0.0002        -0.0002        -0.0002         4.8396        -0.0002        -0.0002        -0.0002         4.8396
    240.00         4.6422        -0.0002        -0.0002        -0.0002         4.6422        -0.0002        -0.0002        -0.0002         4.6422
    250.00         4.4601        -0.0002        -0.0002        -0.0002         4.4601        -0.0002        -0.0002        -0.0002         4.4601
    260.00         4.2916        -0.0002        -0.0002        -0.0002         4.2916        -0.0002        -0.0002        -0.0002         4.2916
    270.00         4.1353        -0.0002        -0.0002        -0.0002         4.1353        -0.0002        -0.0002        -0.0002         4.1353
    280.00         3.9900        -0.0002        -0.0002        -0.0002         3.9900        -0.0002        -0.0002        -0.0002         3.9900
    290.00         3.8544        -0.0002        -0.0002        -0.0002         3.8544        -0.0002        -0.0002        -0.0002         3.8544
    300.00         3.7277        -0.0002        -0.0002        -0.0002         3.7277        -0.0002        -0.0002        -0.0002         3.7277
    310.00         3.6090        -0.0002        -0.0002        -0.0002         3.6090        -0.0002        -0.0002        -0.0002         3.6090
    320.00         3.4975        -0.0002        -0.0002        -0.0002         3.4975        -0.0002        -0.0002        -0.0002         3.4975
    330.00         3.3928        -0.0002        -0.0002        -0.0002         3.3928        -0.0002        -0.0002        -0.0002         3.3928
    340.00         3.2940        -0.0001        -0.0001        -0.0001         3.2940        -0.0001        -0.0001        -0.0001         3.2940
    350.00         3.2009        -0.0001        -0.0001        -0.0001         3.2009        -0.0001        -0.0001        -0.0001         3.2009
    360.00         3.1128        -0.0001        -0.0001        -0.0001         3.1128        -0.0001        -0.0001        -0.0001         3.1128
    370.00         3.0294        -0.0001        -0.0001        -0.0001         3.0294        -0.0001        -0.0001        -0.0001         3.0294
    380.00         2.9504        -0.0001        -0.0001        -0.0001         2.9504        -0.0001        -0.0001        -0.0001         2.9504
    390.00         2.8754        -0.0001        -0.0001        -0.0001         2.8754        -0.0001        -0.0001        -0.0001         2.8754
    400.00         2.8041        -0.0001        -0.0001        -0.0001         2.8041        -0.0001        -0.0001        -0.0001         2.8041
    410.00         2.7362        -0.0001        -0.0001        -0.0001         2.7362        -0.0001        -0.0001        -0.0001         2.7362
    420.00         2.6715        -0.0001        -0.0001        -0.0001         2.6715        -0.0001        -0.0001        -0.0001         2.6715
    430.00         2.6098        -0.0001        -0.0001        -0.0001         2.6098        -0.0001        -0.0001        -0.0001         2.6098
    440.00         2.5508        -0.0001        -0.0001        -0.0001         2.5508        -0.0001        -0.0001        -0.0001         2.5508
    450.00         2.4945        -0.0001        -0.0001        -0.0001         2.4945        -0.0001        -0.0001        -0.0001         2.4945
    460.00         2.4406        -0.0001        -0.0001        -0.0001         2.4406        -0.0001        -0.0001        -0.0001         2.4406
    470.00         2.3890        -0.0001        -0.0001        -0.0001         2.3890        -0.0001        -0.0001        -0.0001         2.3890
    480.00         2.3395        -0.0001        -0.0001        -0.0001         2.3395        -0.0001        -0.0001        -0.0001         2.3395
    490.00         2.2920        -0.0001        -0.0001        -0.0001         2.2920        -0.0001        -0.0001        -0.0001         2.2920
    500.00         2.2464        -0.0001        -0.0001        -0.0001         2.2464        -0.0001        -0.0001        -0.0001         2.2464
    510.00         2.2025        -0.0001        -0.0001        -0.0001         2.2025        -0.0001        -0.0001        -0.0001         2.2025
    520.00         2.1604        -0.0001        -0.0001        -0.0001         2.1604        -0.0001        -0.0001        -0.0001         2.1604
    530.00         2.1198        -0.0001        -0.0001        -0.0001         2.1198        -0.0001        -0.0001        -0.0001         2.1198
    540.00         2.0807        -0.0001        -0.0001        -0.0001         2.0807        -0.0001        -0.0001        -0.0001         2.0807
    550.00         2.0430        -0.0001        -0.0001        -0.0001         2.0430        -0.0001        -0.0001        -0.0001         2.0430
    560.00         2.0067        -0.0001        -0.0001        -0.0001         2.0067        -0.0001        -0.0001        -0.0001         2.0067
    570.00         1.9716        -0.0001        -0.0001        -0.0001         1.9716        -0.0001        -0.0001        -0.0001         1.9716
    580.00         1.9378        -0.0001        -0.0001        -0.0001         1.9378        -0.0001        -0.0001        -0.0001         1.9378
    590.00         1.9050        -0.0001        -0.0001        -0.0001         1.9050        -0.0001        -0.0001        -0.0001         1.9050
    600.00         1.8734        -0.0001        -0.0001        -0.0001         1.8734        -0.0001        -0.0001        -0.0001         1.8734
    610.00         1.8428        -0.0001        -0.0001        -0.0001         1.8428        -0.0001        -0.0001        -0.0001         1.8428
    620.00         1.8132        -0.0001        -0.0001        -0.0001         1.8132        -0.0001        -0.0001        -0.0001         1.8132
    630.00         1.7845        -0.0001        -0.0001        -0.0001         1.7845        -0.0001        -0.0001        -0.0001         1.7845
    640.00         1.7567        -0.0001        -0.0001        -0.0001         1.7567        -0.0001        -0.0001        -0.0001         1.7567
    650.00         1.7297        -0.0001        -0.0001        -0.0001         1.7297        -0.0001        -0.0001        -0.0001         1.7297
    660.00         1.7036        -0.0001        -0.0001        -0.0001         1.7036        -0.0001        -0.0001        -0.0001         1.7036
    670.00         1.6782        -0.0001        -0.0001        -0.0001         1.6782        -0.0001        -0.0001        -0.0001         1.6782
    680.00         1.6536        -0.0001        -0.0001        -0.0001         1.6536        -0.0001        -0.0001        -0.0001         1.6536
    690.00         1.6297        -0.0001        -0.0001        -0.0001         1.6297        -0.0001        -0.0001        -0.0001         1.6297
    700.00         1.6065        -0.0001        -0.0001        -0.0001         1.6065        -0.0001        -0.0001        -0.0001         1.6065
    710.00         1.5839        -0.0001        -0.0001        -0.0001         1.5839        -0.0001        -0.0001        -0.0001         1.5839
    720.00         1.5620        -0.0001        -0.0001        -0.0001         1.5620        -0.0001        -0.0001        -0.0001         1.5620
    730.00         1.5406        -0.0001        -0.0001        -0.0001         1.5406        -0.0001        -0.0001        -0.0001         1.5406
    740.00         1.5199        -0.0001        -0.0001        -0.0001         1.5199        -0.0001        -0.0001        -0.0001         1.5199
    750.00         1.4996        -0.0001        -0.0001        -0.0001         1.4996        -0.0001        -0.0001        -0.0001         1.4996
    760.00         1.4800        -0.0001        -0.0001        -0.0001         1.4800        -0.0001        -0.0001        -0.0001         1.4800
    770.00         1.4608        -0.0001        -0.0001        -0.0001         1.4608        -0.0001        -0.0001        -0.0001         1.4608
    780.00         1.4421        -0.0001        -0.0001        -0.0001         1.4421        -0.0001        -0.0001        -0.0001         1.4421
    790.00         1.4239        -0.0001        -0.0001        -0.0001         1.4239        -0.0001        -0.0001        -0.0001         1.4239
    800.00         1.4061        -0.0001        -0.0001        -0.0001         1.4061        -0.0001        -0.0001        -0.0001         1.4061
    810.00         1.3888        -0.0001        -0.0001        -0.0001         1.3888        -0.0001        -0.0001        -0.0001         1.3888
    820.00         1.3719        -0.0001        -0.0001        -0.0001         1.3719        -0.0001        -0.0001        -0.0001         1.3719
    830.00         1.3554        -0.0001        -0.0001        -0.0001         1.3554        -0.0001        -0.0001        -0.0001         1.3554
    840.00         1.3393        -0.0001        -0.0001        -0.0001         1.3393        -0.0001        -0.0001        -0.0001         1.3393
    850.00         1.3235        -0.0001        -0.0001        -0.0001         1.3235        -0.0001        -0.0001        -0.0001         1.3235
    860.00         1.3082        -0.0001        -0.0001        -0.0001         1.3082        -0.0001        -0.0001        -0.0001         1.3082
    870.00         1.2932        -0.0001        -0.0001        -0.0001         1.2932        -0.0001        -0.0001        -0.0001         1.2932
    880.00         1.2785        -0.0001        -0.0001        -0.0001         1.2785        -0.0001        -0.0001        -0.0001         1.2785
    890.00         1.2642        -0.0001        -0.0001        -0.0001         1.2642        -0.0001        -0.0001        -0.0001         1.2642
    900.00         1.2501        -0.0001        -0.0001        -0.0001         1.2501        -0.0001        -0.0001        -0.0001         1.2501
    910.00         1.2364        -0.0001        -0.0001        -0.0001         1.2364        -0.0001        -0.0001        -0.0001         1.2364
    920.00         1.2230        -0.0001        -0.0001        -0.0001         1.2230        -0.0001        -0.0001        -0.0001         1.2230
    930.00         1.2099        -0.0001        -0.0001        -0.0001         1.2099        -0.0001        -0.0001        -0.0001         1.2099
    940.00         1.1970        -0.0001        -0.0001        -0.0001         1.1970        -0.0001        -0.0001        -0.0001         1.1970
    950.00         1.1844        -0.0001        -0.0001        -0.0001         1.1844        -0.0001        -0.0001        -0.0001         1.1844
    960.00         1.1721        -0.0001        -0.0001        -0.0001         1.1721        -0.0001        -0.0001        -0.0001         1.1721
    970.00         1.1600        -0.0001        -0.0001        -0.0001         1.1600        -0.0001        -0.0001        -0.0001         1.1600
    980.00         1.1482        -0.0001        -0.0001        -0.0001         1.1482        -0.0001        -0.0001        -0.0001         1.1482
    990.00         1.1366        -0.0001        -0.0001        -0.0001         1.1366        -0.0001        -0.0001        -0.0001         1.1366
   1000.00         1.1253        -0.0001        -0.0001        -0.0001         1.1253        -0.0001        -0.0001        -0.0001         1.1253
