# k-axis, Phonon energy [meV], band-1, band-2, band-3, band-4, band-5, band-6, band-7
     1     0.000000    0.000000     0.000000     0.000000 
     2     0.011920    0.416923     0.416923     0.580362 
     3     0.023840    0.833387     0.833387     1.160284 
     4     0.035760    1.248936     1.248936     1.739328 
     5     0.047680    1.663112     1.663112     2.317051 
     6     0.059600    2.075465     2.075465     2.893009 
     7     0.071520    2.485542     2.485542     3.466756 
     8     0.083441    2.892900     2.892900     4.037841 
     9     0.095361    3.297096     3.297096     4.605810 
    10     0.107281    3.697696     3.697696     5.170200 
    11     0.119201    4.094272     4.094272     5.730550 
    12     0.131121    4.486404     4.486404     6.286386 
    13     0.143041    4.873677     4.873677     6.837232 
    14     0.154961    5.255688     5.255688     7.382605 
    15     0.166881    5.632042     5.632042     7.922016 
    16     0.178801    6.002353     6.002353     8.454969 
    17     0.190721    6.366245     6.366245     8.980964 
    18     0.202641    6.723354     6.723354     9.499493 
    19     0.214561    7.073326     7.073326    10.010045 
    20     0.226482    7.415819     7.415819    10.512103 
    21     0.238402    7.750504     7.750504    11.005147 
    22     0.250322    8.077063     8.077063    11.488653 
    23     0.262242    8.395189     8.395189    11.962094 
    24     0.274162    8.704590     8.704590    12.424941 
    25     0.286082    9.004984     9.004984    12.876674 
    26     0.298002    9.296102     9.296102    13.316766 
    27     0.309922    9.577692     9.577692    13.744683 
    28     0.321842    9.849508     9.849508    14.159917 
    29     0.333762   10.111322    10.111322    14.561947 
    30     0.345682   10.362914    10.362914    14.950265 
    31     0.357602   10.604081    10.604081    15.324362 
    32     0.369523   10.834630    10.834630    15.683768 
    33     0.381443   11.054377    11.054377    16.027986 
    34     0.393363   11.263155    11.263155    16.356545 
    35     0.405283   11.460805    11.460805    16.669012 
    36     0.417203   11.647181    11.647181    16.964940 
    37     0.429123   11.822145    11.822145    17.243895 
    38     0.441043   11.985574    11.985574    17.505505 
    39     0.452963   12.137353    12.137353    17.749361 
    40     0.464883   12.277376    12.277376    17.975129 
    41     0.476803   12.405550    12.405550    18.182460 
    42     0.488723   12.521782    12.521782    18.371046 
    43     0.500643   12.625999    12.625999    18.540614 
    44     0.512564   12.718141    12.718141    18.690878 
    45     0.524484   12.798145    12.798145    18.821639 
    46     0.536404   12.865950    12.865950    18.932676 
    47     0.548324   12.921530    12.921530    19.023826 
    48     0.560244   12.964837    12.964837    19.094941 
    49     0.572164   12.995844    12.995844    19.145921 
    50     0.584084   13.014540    13.014540    19.176668 
    51     0.596004   13.020913    13.020913    19.187157 
    52     0.596004   13.020913    13.020925    19.187157 
    53     0.612862   13.011974    13.043799    19.176966 
    54     0.629719   12.985777    13.110277    19.147074 
    55     0.646577   12.942384    13.218450    19.097507 
    56     0.663434   12.881931    13.365255    19.028339 
    57     0.680292   12.804592    13.546650    18.939668 
    58     0.697149   12.710616    13.757837    18.831607 
    59     0.714007   12.600261    13.993449    18.704292 
    60     0.730864   12.473876    14.247794    18.557909 
    61     0.747722   12.331813    14.514996    18.392631 
    62     0.764579   12.174499    14.789177    18.208682 
    63     0.781437   12.002385    15.064587    18.006310 
    64     0.798295   11.815967    15.335669    17.785762 
    65     0.815152   11.615779    15.597155    17.547336 
    66     0.832010   11.402382    15.844098    17.291329 
    67     0.848867   11.176372    16.071887    17.018065 
    68     0.865725   10.938370    16.276293    16.727890 
    69     0.882582   10.689019    16.421163    16.453411 
    70     0.899440   10.428984    16.098257    16.599757 
    71     0.916297   10.158945    15.759569    16.712169 
    72     0.933155    9.879592    15.405519    16.787859 
    73     0.950012    9.591625    15.036505    16.824359 
    74     0.966870    9.295745    14.652985    16.819573 
    75     0.983728    8.992657    14.255394    16.771717 
    76     1.000585    8.683056    13.844190    16.679290 
    77     1.017443    8.367632    13.419843    16.541139 
    78     1.034300    8.047060    12.982814    16.356396 
    79     1.051158    7.721995    12.533609    16.124479 
    80     1.068015    7.393076    12.072707    15.845078 
    81     1.084873    7.060911    11.600600    15.518180 
    82     1.101730    6.726084    11.117789    15.144008 
    83     1.118588    6.389138    10.624777    14.723034 
    84     1.135445    6.050589    10.122076    14.256014 
    85     1.152303    5.710906     9.610191    13.743890 
    86     1.169160    5.370519     9.089635    13.187852 
    87     1.186018    5.029814     8.560922    12.589326 
    88     1.202876    4.689131     8.024565    11.949898 
    89     1.219733    4.348758     7.481078    11.271393 
    90     1.236591    4.008940     6.930977    10.555795 
    91     1.253448    3.669870     6.374773     9.805268 
    92     1.270306    3.331693     5.812982     9.022140 
    93     1.287163    2.994505     5.246116     8.208883 
    94     1.304021    2.658359     4.674684     7.368114 
    95     1.320878    2.323262     4.099200     6.502566 
    96     1.337736    1.989180     3.520173     5.615093 
    97     1.354593    1.656043     2.938109     4.708638 
    98     1.371451    1.323747     2.353519     3.786236 
    99     1.388309    0.992158     1.766906     2.850991 
   100     1.405166    0.661123     1.178779     1.906062 
   101     1.422024    0.330465     0.589642     0.954655 
   102     1.438881    0.000000     0.000000     0.000000 
   103     1.438881    0.000000     0.000000     0.000000 
   104     1.449204    0.265980     0.265980     0.609796 
   105     1.459527    0.531698     0.531698     1.218991 
   106     1.469850    0.796891     0.796891     1.826984 
   107     1.480174    1.061298     1.061298     2.433174 
   108     1.490497    1.324658     1.324658     3.036966 
   109     1.500820    1.586713     1.586713     3.637763 
   110     1.511143    1.847203     1.847203     4.234971 
   111     1.521466    2.105870     2.105870     4.828003 
   112     1.531789    2.362461     2.362461     5.416273 
   113     1.542112    2.616722     2.616722     5.999203 
   114     1.552435    2.868401     2.868401     6.576214 
   115     1.562758    3.117253     3.117253     7.146742 
   116     1.573081    3.363029     3.363031     7.710219 
   117     1.583404    3.605491     3.605491     8.266094 
   118     1.593728    3.844394     3.844395     8.813816 
   119     1.604051    4.079507     4.079507     9.352845 
   120     1.614374    4.310597     4.310597     9.882652 
   121     1.624697    4.537436     4.537436    10.402711 
   122     1.635020    4.759799     4.759799    10.912510 
   123     1.645343    4.977470     4.977470    11.411548 
   124     1.655666    5.190229     5.190229    11.899331 
   125     1.665989    5.397871     5.397871    12.375380 
   126     1.676312    5.600190     5.600190    12.839220 
   127     1.686635    5.796985     5.796985    13.290408 
   128     1.696958    5.988063     5.988063    13.728479 
   129     1.707282    6.173236     6.173236    14.153011 
   130     1.717605    6.352320     6.352320    14.563583 
   131     1.727928    6.525139     6.525139    14.959799 
   132     1.738251    6.691524     6.691524    15.341260 
   133     1.748574    6.851308     6.851310    15.707584 
   134     1.758897    7.004337     7.004337    16.058423 
   135     1.769220    7.150457     7.150457    16.393429 
   136     1.779543    7.289526     7.289526    16.712268 
   137     1.789866    7.421404     7.421406    17.014618 
   138     1.800189    7.545965     7.545966    17.300182 
   139     1.810513    7.663084     7.663084    17.568697 
   140     1.820836    7.772643     7.772643    17.819881 
   141     1.831159    7.874539     7.874539    18.053484 
   142     1.841482    7.968667     7.968668    18.269296 
   143     1.851805    8.054937     8.054938    18.467081 
   144     1.862128    8.133264     8.133264    18.646654 
   145     1.872451    8.203568     8.203569    18.807840 
   146     1.882774    8.265783     8.265784    18.950467 
   147     1.893097    8.319845     8.319845    19.074422 
   148     1.903420    8.365703     8.365703    19.179545 
   149     1.913743    8.403310     8.403310    19.265773 
   150     1.924067    8.432629     8.432629    19.332982 
   151     1.934390    8.453632     8.453632    19.381136 
   152     1.944713    8.466298     8.466298    19.410172 
   153     1.955036    8.470614     8.470614    19.420078 
