# k-axis, Phonon energy [meV], band-1, band-2, band-3, band-4, band-5, band-6, band-7
     1     0.000000    0.000000     0.000000     0.000000    15.154299    64.096247    64.096271 
     2     0.011899   -1.292635    -0.493816     1.577736    15.141157    64.026632    64.049667 
     3     0.023799   -2.584046    -0.987086     3.150574    15.101731    63.817602    63.910041 
     4     0.035698   -3.873009    -1.479266     4.713501    15.035960    63.468672    63.677839 
     5     0.047597   -5.158313    -1.969810     6.261276    14.943743    62.978976    63.353854 
     6     0.059496   -6.438757    -2.458176     7.788281    14.824983    62.347273    62.939278 
     7     0.071396   -7.713158    -2.943822     9.288368    14.679480    61.571865    62.435745 
     8     0.083295   -8.980354    -3.426210    10.754645    14.507011    60.650570    61.845501 
     9     0.095194  -10.239216    -3.904800    12.179222    14.307304    59.580573    61.171521 
    10     0.107094  -11.488651    -4.379057    13.552861    14.079975    58.358303    60.417710 
    11     0.118993  -12.727613    -4.848452    13.824588    14.864520    56.979299    59.589264 
    12     0.130892  -13.955127    -5.312456    13.540575    16.100774    55.437893    58.693049 
    13     0.142791  -15.170292    -5.770544    13.227240    17.244949    53.726969    57.738131 
    14     0.154691  -16.372303    -6.222194    12.883692    18.276165    51.837402    56.736509 
    15     0.166590  -17.560527    -6.666893    12.508838    19.167841    49.757476    55.703941 
    16     0.178489  -18.734494    -7.104128    12.101290    19.886132    47.471830    54.660959 
    17     0.190388  -19.894029    -7.533394    11.659285    20.387829    44.959983    53.633698 
    18     0.202288  -21.039369    -7.954190    11.180540    20.618345    42.193965    52.654232 
    19     0.214187  -22.171331    -8.366018    10.662075    20.509565    39.134213    51.759691 
    20     0.226086  -23.291689    -8.768390    10.099922    19.977418    35.722308    50.989341 
    21     0.237986  -24.403764    -9.160824     9.488664    18.916534    31.866319    50.379273 
    22     0.249885  -25.513522    -9.542840     8.820680    17.182425    27.407316    49.955795 
    23     0.261784  -26.631821    -9.913970     8.084782    14.528782    22.023968    49.730188 
    24     0.273683  -27.779070   -10.273749     7.263583    10.325074    14.821201    49.697234 
    25     0.285583  -28.995661   -10.621721    -6.412122    -3.982607     6.327685    49.838299 
    26     0.297482  -30.365144   -17.040146   -12.383751   -10.957437     5.220265    50.126813 
    27     0.309381  -32.052252   -22.692258   -17.399663   -11.280454     3.800261    50.533702 
    28     0.321281  -34.271382   -26.374476   -21.471687   -11.590342     1.288215    51.031061 
    29     0.333180  -37.010981   -28.719570   -25.009804   -11.886675    -3.324033    51.594227 
    30     0.345079  -39.961172   -30.290546   -28.173042   -12.169040    -4.861843    52.202263 
    31     0.356978  -42.867102   -31.473712   -31.042385   -12.437029    -6.004965    52.837920 
    32     0.368878  -45.623623   -33.665938   -32.452063   -12.690258    -6.947694    53.487117 
    33     0.380777  -48.200275   -36.075167   -33.306037   -12.928337    -7.760543    54.138421 
    34     0.392676  -50.593486   -38.292103   -34.073163   -13.150906    -8.478407    54.782534 
    35     0.404576  -52.808314   -40.332876   -34.772373   -13.357630    -9.121444    55.411894 
    36     0.416475  -54.851951   -42.209710   -35.413957   -13.548175    -9.702453    56.020276 
    37     0.428374  -56.731500   -43.932065   -36.003854   -13.722243   -10.230078    56.602561 
    38     0.440273  -58.453309   -45.507380   -36.545547   -13.879573   -10.710421    57.154495 
    39     0.452173  -60.022797   -46.941630   -37.041219   -14.019981   -11.147913    57.672496 
    40     0.464072  -61.444500   -48.239577   -37.492221   -14.143304   -11.545819    58.153612 
    41     0.475971  -62.722151   -49.405113   -37.899384   -14.249505   -11.906536    58.595341 
    42     0.487871  -63.858862   -50.441375   -38.263241   -14.338671   -12.231778    58.995548 
    43     0.499770  -64.857124   -51.350929   -38.584101   -14.411076   -12.522649    59.352487 
    44     0.511669  -65.719008   -52.135846   -38.862151   -14.467263   -12.779660    59.664681 
    45     0.523568  -66.446126   -52.797776   -39.097477   -14.508202   -13.002675    59.930903 
    46     0.535468  -67.039817   -53.338056   -39.290142   -14.535390   -13.190827    60.150162 
    47     0.547367  -67.501060   -53.757703   -39.440158   -14.551099   -13.342343    60.321663 
    48     0.559266  -67.830623   -54.057487   -39.547525   -14.558327   -13.454533    60.444812 
    49     0.571165  -68.029016   -54.237927   -39.612218   -14.560596   -13.524148    60.519200 
    50     0.583065  -68.096536   -54.299335   -39.634261   -14.560930   -13.548262    60.544554 
    51     0.583065  -68.096536   -54.299335   -39.634261   -14.560930   -13.548262    60.544554 
    52     0.589928  -68.082452   -54.299459   -39.641365   -14.562034   -13.549712    60.520601 
    53     0.596791  -68.040212   -54.299855   -39.662665   -14.565307   -13.554064    60.448743 
    54     0.603654  -67.969828   -54.300550   -39.697987   -14.570750   -13.561292    60.328916 
    55     0.610517  -67.871301   -54.301566   -39.747133   -14.578337   -13.571396    60.161084 
    56     0.617381  -67.744693   -54.302967   -39.809730   -14.588032   -13.584315    59.945161 
    57     0.624244  -67.590028   -54.304802   -39.885395   -14.599786   -13.600036    59.681058 
    58     0.631107  -67.407368   -54.307158   -39.973582   -14.613572   -13.618484    59.368629 
    59     0.637970  -67.196751   -54.310146   -40.073733   -14.629293   -13.639623    59.007711 
    60     0.644833  -66.958275   -54.313853   -40.185141   -14.646910   -13.663365    58.598130 
    61     0.651697  -66.691991   -54.318428   -40.307063   -14.666326   -13.689648    58.139652 
    62     0.658560  -66.398022   -54.323994   -40.438668   -14.687464   -13.718399    57.632016 
    63     0.665423  -66.076430   -54.330714   -40.579038   -14.710227   -13.749506    57.074900 
    64     0.672286  -65.727365   -54.338773   -40.727232   -14.734515   -13.782894    56.467956 
    65     0.679149  -65.350912   -54.348332   -40.882219   -14.760216   -13.818451    55.810750 
    66     0.686012  -64.947233   -54.359614   -41.042897   -14.787206   -13.856067    55.102812 
    67     0.692876  -64.516452   -54.372805   -41.208162   -14.815374   -13.895641    54.343583 
    68     0.699739  -64.058755   -54.388154   -41.376825   -14.844584   -13.937026    53.532407 
    69     0.706602  -63.574291   -54.405858   -41.547682   -14.874711   -13.980121    52.668551 
    70     0.713465  -63.063270   -54.426179   -41.719506   -14.905619   -14.024791    51.751124 
    71     0.720328  -62.525891   -54.449338   -41.891032   -14.937148   -14.070899    50.779146 
    72     0.727191  -61.962402   -54.475572   -42.060996   -14.969159   -14.118322    49.751438 
    73     0.734055  -61.373051   -54.505079   -42.228134   -15.001493   -14.166909    48.666650 
    74     0.740918  -60.758110   -54.538071   -42.391180   -15.034013   -14.216514    47.523195 
    75     0.747781  -60.117927   -54.574731   -42.548895   -15.066533   -14.267011    46.319226 
    76     0.754644  -59.452836   -54.615186   -42.700063   -15.098917   -14.318227    45.052547 
    77     0.761507  -58.763259   -54.659546   -42.843521   -15.130990   -14.370051    43.720568 
    78     0.768370  -58.049668   -54.707874   -42.978138   -15.162580   -14.422296    42.320213 
    79     0.775234  -57.312594   -54.760131   -43.102850   -15.193526   -14.474839    40.847790 
    80     0.782097  -56.552696   -54.816257   -43.216676   -15.223665   -14.527530    39.298808 
    81     0.788960  -55.770742   -54.876065   -43.318724   -15.252813   -14.580209    37.667802 
    82     0.795823  -54.971492   -54.935464   -43.408163   -15.280795   -14.632727    35.947976 
    83     0.802686  -55.006256   -54.143926   -43.484286   -15.307463   -14.684947    34.130801 
    84     0.809550  -55.075487   -53.301928   -43.546450   -15.332619   -14.736709    32.205330 
    85     0.816413  -55.147048   -52.442771   -43.594145   -15.356113   -14.787876    30.157180 
    86     0.823276  -55.220308   -51.568576   -43.626938   -15.377760   -14.838286    27.966863 
    87     0.830139  -55.294609   -50.681983   -43.644481   -15.397374   -14.887816    25.606978 
    88     0.837002  -55.369220   -49.786401   -43.646539   -15.414818   -14.936305    23.036687 
    89     0.843865  -55.443323   -48.886219   -43.632914   -15.429894   -14.983628    20.190465 
    90     0.850729  -55.516074   -47.987215   -43.603493   -15.442440   -15.029624    16.950174 
    91     0.857592  -55.586557   -47.097039   -43.558228   -15.452284   -15.074183    13.056582 
    92     0.864455  -55.653841   -46.225807   -43.497069   -15.459265   -15.117154     7.625862 
    93     0.871318  -55.716959   -45.387045   -43.419953   -15.463207   -15.158415    -6.958534 
    94     0.878181  -55.774920   -44.598693   -43.326720   -15.463951   -15.197828   -12.154160 
    95     0.885044  -55.826731   -43.884568   -43.216527   -15.461335   -15.423137   -15.235282 
    96     0.891908  -55.871413   -43.281393   -43.081116   -17.793783   -15.455186   -15.270629 
    97     0.898771  -55.907988   -42.973898   -42.768538   -19.530309   -15.445354   -15.303756 
    98     0.905634  -55.935486   -42.811782   -42.462109   -20.731663   -15.431679   -15.334541 
    99     0.912497  -55.952967   -42.640987   -42.341786   -21.441870   -15.414037   -15.362833 
   100     0.919360  -55.959514   -42.465828   -42.413384   -21.690413   -15.393580   -15.387195 
   101     0.919360  -55.959514   -42.465828   -42.413384   -21.690413   -15.393580   -15.387195 
   102     0.933087  -55.931271   -43.238942   -41.992745   -20.784925   -15.435981   -15.328503 
   103     0.946813  -55.848440   -44.484483   -41.511083   -18.472227   -15.466815   -15.251102 
   104     0.960539  -55.704970   -45.923928   -40.967554   -15.485288   -15.153765   -14.817804 
   105     0.974266  -55.495432   -47.372994   -40.360586   -15.490681   -15.035241    -9.069771 
   106     0.987992  -55.215039   -48.729731   -39.687709   -15.482337   -14.894300     7.833866 
   107     1.001718  -54.859662   -49.940396   -38.945540   -15.459624   -14.729692    14.341039 
   108     1.015445  -54.425881   -50.976522   -38.129441   -15.421996   -14.540114    18.629322 
   109     1.029171  -53.911029   -51.822661   -37.233401   -15.368920   -14.324265    21.980551 
   110     1.042897  -53.313198   -52.469985   -36.249595   -15.299963   -14.080743    24.744276 
   111     1.056624  -52.913114   -52.631357   -35.167993   -15.214714   -13.808074    27.078571 
   112     1.070350  -53.148366   -51.865421   -33.975665   -15.112815   -13.504645    29.071711 
   113     1.084076  -53.172728   -51.016332   -32.655836   -14.993968   -13.168672    30.779424 
   114     1.097803  -52.983374   -50.086184   -31.186524   -14.857924   -12.798133    32.239821 
   115     1.111529  -52.577141   -49.078326   -29.538396   -14.704487   -12.390684    33.480638 
   116     1.125255  -51.950335   -47.997357   -27.671208   -14.533506   -11.943519    34.523074 
   117     1.138982  -51.098357   -46.849203   -25.527395   -14.344883   -11.453210    35.384004 
   118     1.152708  -50.015342   -45.640943   -23.019416   -14.138555   -10.915438    36.077486 
   119     1.166434  -48.693790   -44.380625   -19.999846   -13.914523   -10.324580    36.615646 
   120     1.180161  -47.123893   -43.076876   -16.174208   -13.672837    -9.673042    37.009456 
   121     1.193887  -45.292783   -41.738450   -13.413570   -10.701655    -8.950106    37.269355 
   122     1.207613  -43.183164   -40.373690   -13.136871    -8.139780     6.423179    37.405708 
   123     1.221340  -40.771492   -38.990111   -12.842890    -7.216314    14.336477    37.429574 
   124     1.235066  -38.024740   -37.593935   -12.531874    -6.133325    19.438725    37.353426 
   125     1.248792  -36.190035   -34.894940   -12.204048    -4.789805    23.613082    37.192425 
   126     1.262519  -34.781808   -31.308719   -11.859732    -2.847827    27.272810    36.966360 
   127     1.276245  -33.371399   -27.144752   -11.499260     2.610587    30.586188    36.702952 
   128     1.289971  -31.959899   -22.174009   -11.123005     4.665654    33.638390    36.443871 
   129     1.303698  -30.547581   -15.834341   -10.731378     6.056618    36.255186    36.477916 
   130     1.317424  -29.134197   -10.324828    -4.781468     7.175676    36.244673    39.134436 
   131     1.331150  -27.719176    -9.903834     8.131610    13.359837    36.579902    41.627016 
   132     1.344877  -26.301762    -9.468911     8.972870    18.328422    37.468070    43.968379 
   133     1.358603  -24.881187    -9.020601     9.725740    20.883811    39.027094    46.167226 
   134     1.372329  -23.456718    -8.559482    10.406171    21.935038    41.141374    48.229584 
   135     1.386056  -22.027700    -8.086157    11.024567    22.036937    43.548992    50.159717 
   136     1.399782  -20.593636    -7.601252    11.588061    21.559465    46.026422    51.960588 
   137     1.413508  -19.154141    -7.105425    12.101724    20.719773    48.442036    53.634306 
   138     1.427235  -17.709006    -6.599354    12.569254    19.639759    50.729008    55.182320 
   139     1.440961  -16.258117    -6.083740    12.993414    18.389631    52.855178    56.605598 
   140     1.454687  -14.801526    -5.559304    13.376264    17.012263    54.805384    57.904760 
   141     1.468413  -13.339380    -5.026789    13.719416    15.535673    56.572743    59.080189 
   142     1.482140  -11.871960    -4.486952    13.979464    14.024097    58.154344    60.132073 
   143     1.495866  -10.399612    -3.940564    12.358341    14.291237    59.549169    61.060485 
   144     1.509592   -8.922782    -3.388417    10.683963    14.521567    60.757106    61.865388 
   145     1.523319   -7.441983    -2.831309     8.966095    14.715670    61.778379    62.546707 
   146     1.537045   -5.957787    -2.270050     7.213272    14.873955    62.613347    63.104369 
   147     1.550771   -4.470818    -1.705461     5.433216    14.996770    63.262357    63.538225 
   148     1.564498   -2.981734    -1.138369     3.633121    15.084337    63.725708    63.848212 
   149     1.578224   -1.491225    -0.569603     1.819834    15.136817    64.003634    64.034232 
   150     1.591950    0.000000     0.000000     0.000000    15.154299    64.096247    64.096271 
   151     1.591950    0.000000     0.000000     0.000000    15.154299    64.096247    64.096271 
   152     1.598311   -1.026720    -1.026720     0.299912    15.153381    64.071562    64.071587 
   153     1.604671   -2.051595    -2.051594     0.599668    15.150604    63.997534    63.997559 
   154     1.611031   -3.072777    -3.072776     0.899111    15.145980    63.874211    63.874236 
   155     1.617391   -4.088424    -4.088422     1.198085    15.139483    63.701693    63.701730 
   156     1.623752   -5.096686    -5.096685     1.496435    15.131102    63.480116    63.480153 
   157     1.630112   -6.095722    -6.095720     1.794005    15.120812    63.209653    63.209678 
   158     1.636472   -7.083684    -7.083682     2.090643    15.108587    62.890492    62.890516 
   159     1.642832   -8.058729    -8.058724     2.386195    15.094391    62.522878    62.522916 
   160     1.649193   -9.019006    -9.019002     2.680511    15.078200    62.107099    62.107136 
   161     1.655553   -9.962672    -9.962667     2.973440    15.059962    61.643464    61.643488 
   162     1.661913  -10.887875   -10.887870     3.264834    15.039629    61.132294    61.132319 
   163     1.668273  -11.792767   -11.792762     3.554546    15.017152    60.573975    60.574012 
   164     1.674633  -12.675492   -12.675480     3.842434    14.992480    59.968915    59.968940 
   165     1.680994  -13.534190   -13.534178     4.128354    14.965564    59.317524    59.317549 
   166     1.687354  -14.366988   -14.366988     4.412168    14.936342    58.620261    58.620286 
   167     1.693714  -15.172028   -15.172028     4.693738    14.904739    57.877608    57.877633 
   168     1.700074  -15.947411   -15.947411     4.972928    14.870694    57.090050    57.090075 
   169     1.706435  -16.691254   -16.691241     5.249608    14.834145    56.258107    56.258132 
   170     1.712795  -17.401610   -17.401610     5.523650    14.795005    55.382288    55.382312 
   171     1.719155  -18.076569   -18.076569     5.794927    14.753211    54.463137    54.463162 
   172     1.725515  -18.714161   -18.714149     6.063318    14.708690    53.501176    53.501201 
   173     1.731876  -19.312377   -19.312377     6.328704    14.661366    52.496938    52.496963 
   174     1.738236  -19.869196   -19.869184     6.590970    14.611155    51.450944    51.450969 
   175     1.744596  -20.382510   -20.382498     6.850004    14.557967    50.363689    50.363714 
   176     1.750956  -20.850188   -20.850188     7.105702    14.501742    49.235657    49.235681 
   177     1.757316  -21.270009   -21.269996     7.357955    14.442381    48.067294    48.067319 
   178     1.763677  -21.639668   -21.639655     7.606669    14.379820    46.858960    46.858985 
   179     1.770037  -21.956734   -21.956722     7.851746    14.313975    45.611002    45.611027 
   180     1.776397  -22.218667   -22.218667     8.093097    14.244756    44.323643    44.323668 
   181     1.782757  -22.422775   -22.422762     8.330634    14.172079    42.997008    42.997020 
   182     1.789118  -22.566145   -22.566133     8.564277    14.095894    41.631071    41.631083 
   183     1.795478  -22.645641   -22.645629     8.793949    14.016100    40.225646    40.225671 
   184     1.801838  -22.657816   -22.657816     9.019575    13.932624    38.780336    38.780349 
   185     1.808198  -22.598864   -22.598864     9.241090    13.845392    37.294411    37.294436 
   186     1.814559  -22.464507   -22.464494     9.458432    13.754341    35.766841    35.766854 
   187     1.820919  -22.249860   -22.249848     9.671540    13.659397    34.196077    34.196089 
   188     1.827279  -21.949270   -21.949258     9.880363    13.560486    32.579985    32.579998 
   189     1.833639  -21.556080   -21.556068    10.084853    13.457558    30.915591    30.915603 
   190     1.839999  -21.062305   -21.062293    10.284968    13.350538    29.198840    29.198852 
   191     1.846360  -20.458076   -20.458064    10.480669    13.239378    27.424128    27.424140 
   192     1.852720  -19.730971   -19.730958    10.671924    13.124014    25.583707    25.583719 
   193     1.859080  -18.864797   -18.864784    10.858706    13.004399    23.666555    23.666567 
   194     1.865440  -17.837635   -17.837623    11.040992    12.880493    21.656727    21.656740 
   195     1.871801  -16.618354   -16.618341    11.218763    12.752248    19.530123    19.530135 
   196     1.878161  -15.159778   -15.159766    11.392009    12.619614    17.248234    17.248234 
   197     1.884521  -13.383517   -13.383505    11.560722    12.482567    14.743987    14.743999 
   198     1.890881  -11.138916   -11.138911    11.724899    11.882947    11.882954    12.341078 
   199     1.897242   -8.044486    -8.044482     8.310839     8.310844    11.884544    12.195114 
   200     1.903602   -0.001422    -0.001422     0.033518     0.033518    12.042158    12.042160 
