# Temperature [K], Thermal Conductivity (xx, xy, xz, yx, yy, yz, zx, zy, zz) [W/mK]
      0.00         0.0000         0.0000         0.0000         0.0000         0.0000         0.0000         0.0000         0.0000         0.0000
     10.00      8235.6808         0.0003         0.0003         0.0003      8235.6808         0.0003         0.0003         0.0003      8235.6808
     20.00       513.8341         0.0009         0.0009         0.0009       513.8341         0.0009         0.0009         0.0009       513.8341
     30.00       131.4331         0.0008         0.0008         0.0008       131.4331         0.0008         0.0008         0.0008       131.4331
     40.00        72.6793         0.0004         0.0004         0.0004        72.6793         0.0004         0.0004         0.0004        72.6793
     50.00        55.3415         0.0000         0.0000         0.0000        55.3415         0.0000         0.0000         0.0000        55.3415
     60.00        47.2347        -0.0001        -0.0001        -0.0001        47.2347        -0.0001        -0.0001        -0.0001        47.2347
     70.00        42.0759        -0.0002        -0.0002        -0.0002        42.0759        -0.0002        -0.0002        -0.0002        42.0759
     80.00        38.1900        -0.0003        -0.0003        -0.0003        38.1900        -0.0003        -0.0003        -0.0003        38.1900
     90.00        35.0177        -0.0003        -0.0003        -0.0003        35.0177        -0.0003        -0.0003        -0.0003        35.0177
    100.00        32.3278        -0.0003        -0.0003        -0.0003        32.3278        -0.0003        -0.0003        -0.0003        32.3278
    110.00        30.0019        -0.0003        -0.0003        -0.0003        30.0019        -0.0003        -0.0003        -0.0003        30.0019
    120.00        27.9674        -0.0003        -0.0003        -0.0003        27.9674        -0.0003        -0.0003        -0.0003        27.9674
    130.00        26.1731        -0.0002        -0.0002        -0.0002        26.1731        -0.0002        -0.0002        -0.0002        26.1731
    140.00        24.5805        -0.0002        -0.0002        -0.0002        24.5805        -0.0002        -0.0002        -0.0002        24.5805
    150.00        23.1589        -0.0002        -0.0002        -0.0002        23.1589        -0.0002        -0.0002        -0.0002        23.1589
    160.00        21.8837        -0.0002        -0.0002        -0.0002        21.8837        -0.0002        -0.0002        -0.0002        21.8837
    170.00        20.7345        -0.0002        -0.0002        -0.0002        20.7345        -0.0002        -0.0002        -0.0002        20.7345
    180.00        19.6944        -0.0002        -0.0002        -0.0002        19.6944        -0.0002        -0.0002        -0.0002        19.6944
    190.00        18.7492        -0.0002        -0.0002        -0.0002        18.7492        -0.0002        -0.0002        -0.0002        18.7492
    200.00        17.8870        -0.0002        -0.0002        -0.0002        17.8870        -0.0002        -0.0002        -0.0002        17.8870
    210.00        17.0978        -0.0002        -0.0002        -0.0002        17.0978        -0.0002        -0.0002        -0.0002        17.0978
    220.00        16.3731        -0.0002        -0.0002        -0.0002        16.3731        -0.0002        -0.0002        -0.0002        16.3731
    230.00        15.7054        -0.0002        -0.0002        -0.0002        15.7054        -0.0002        -0.0002        -0.0002        15.7054
    240.00        15.0885        -0.0001        -0.0001        -0.0001        15.0885        -0.0001        -0.0001        -0.0001        15.0885
    250.00        14.5170        -0.0001        -0.0001        -0.0001        14.5170        -0.0001        -0.0001        -0.0001        14.5170
    260.00        13.9862        -0.0001        -0.0001        -0.0001        13.9862        -0.0001        -0.0001        -0.0001        13.9862
    270.00        13.4919        -0.0001        -0.0001        -0.0001        13.4919        -0.0001        -0.0001        -0.0001        13.4919
    280.00        13.0307        -0.0001        -0.0001        -0.0001        13.0307        -0.0001        -0.0001        -0.0001        13.0307
    290.00        12.5993        -0.0001        -0.0001        -0.0001        12.5993        -0.0001        -0.0001        -0.0001        12.5993
    300.00        12.1951        -0.0001        -0.0001        -0.0001        12.1951        -0.0001        -0.0001        -0.0001        12.1951
    310.00        11.8155        -0.0001        -0.0001        -0.0001        11.8155        -0.0001        -0.0001        -0.0001        11.8155
    320.00        11.4585        -0.0001        -0.0001        -0.0001        11.4585        -0.0001        -0.0001        -0.0001        11.4585
    330.00        11.1221        -0.0001        -0.0001        -0.0001        11.1221        -0.0001        -0.0001        -0.0001        11.1221
    340.00        10.8046        -0.0001        -0.0001        -0.0001        10.8046        -0.0001        -0.0001        -0.0001        10.8046
    350.00        10.5044        -0.0001        -0.0001        -0.0001        10.5044        -0.0001        -0.0001        -0.0001        10.5044
    360.00        10.2203        -0.0001        -0.0001        -0.0001        10.2203        -0.0001        -0.0001        -0.0001        10.2203
    370.00         9.9510        -0.0001        -0.0001        -0.0001         9.9510        -0.0001        -0.0001        -0.0001         9.9510
    380.00         9.6953        -0.0001        -0.0001        -0.0001         9.6953        -0.0001        -0.0001        -0.0001         9.6953
    390.00         9.4523        -0.0001        -0.0001        -0.0001         9.4523        -0.0001        -0.0001        -0.0001         9.4523
    400.00         9.2211        -0.0001        -0.0001        -0.0001         9.2211        -0.0001        -0.0001        -0.0001         9.2211
    410.00         9.0007        -0.0001        -0.0001        -0.0001         9.0007        -0.0001        -0.0001        -0.0001         9.0007
    420.00         8.7906        -0.0001        -0.0001        -0.0001         8.7906        -0.0001        -0.0001        -0.0001         8.7906
    430.00         8.5900        -0.0001        -0.0001        -0.0001         8.5900        -0.0001        -0.0001        -0.0001         8.5900
    440.00         8.3982        -0.0001        -0.0001        -0.0001         8.3982        -0.0001        -0.0001        -0.0001         8.3982
    450.00         8.2147        -0.0001        -0.0001        -0.0001         8.2147        -0.0001        -0.0001        -0.0001         8.2147
    460.00         8.0391        -0.0001        -0.0001        -0.0001         8.0391        -0.0001        -0.0001        -0.0001         8.0391
    470.00         7.8707        -0.0001        -0.0001        -0.0001         7.8707        -0.0001        -0.0001        -0.0001         7.8707
    480.00         7.7092        -0.0001        -0.0001        -0.0001         7.7092        -0.0001        -0.0001        -0.0001         7.7092
    490.00         7.5541        -0.0001        -0.0001        -0.0001         7.5541        -0.0001        -0.0001        -0.0001         7.5541
    500.00         7.4051        -0.0001        -0.0001        -0.0001         7.4051        -0.0001        -0.0001        -0.0001         7.4051
    510.00         7.2618        -0.0001        -0.0001        -0.0001         7.2618        -0.0001        -0.0001        -0.0001         7.2618
    520.00         7.1239        -0.0001        -0.0001        -0.0001         7.1239        -0.0001        -0.0001        -0.0001         7.1239
    530.00         6.9912        -0.0001        -0.0001        -0.0001         6.9912        -0.0001        -0.0001        -0.0001         6.9912
    540.00         6.8632        -0.0001        -0.0001        -0.0001         6.8632        -0.0001        -0.0001        -0.0001         6.8632
    550.00         6.7399        -0.0001        -0.0001        -0.0001         6.7399        -0.0001        -0.0001        -0.0001         6.7399
    560.00         6.6208        -0.0001        -0.0001        -0.0001         6.6208        -0.0001        -0.0001        -0.0001         6.6208
    570.00         6.5059        -0.0001        -0.0001        -0.0001         6.5059        -0.0001        -0.0001        -0.0001         6.5059
    580.00         6.3949        -0.0001        -0.0001        -0.0001         6.3949        -0.0001        -0.0001        -0.0001         6.3949
    590.00         6.2876        -0.0001        -0.0001        -0.0001         6.2876        -0.0001        -0.0001        -0.0001         6.2876
    600.00         6.1838        -0.0001        -0.0001        -0.0001         6.1838        -0.0001        -0.0001        -0.0001         6.1838
    610.00         6.0834        -0.0001        -0.0001        -0.0001         6.0834        -0.0001        -0.0001        -0.0001         6.0834
    620.00         5.9861        -0.0001        -0.0001        -0.0001         5.9861        -0.0001        -0.0001        -0.0001         5.9861
    630.00         5.8919        -0.0001        -0.0001        -0.0001         5.8919        -0.0001        -0.0001        -0.0001         5.8919
    640.00         5.8007        -0.0001        -0.0001        -0.0001         5.8007        -0.0001        -0.0001        -0.0001         5.8007
    650.00         5.7122        -0.0001        -0.0001        -0.0001         5.7122        -0.0001        -0.0001        -0.0001         5.7122
    660.00         5.6263        -0.0001        -0.0001        -0.0001         5.6263        -0.0001        -0.0001        -0.0001         5.6263
    670.00         5.5430        -0.0001        -0.0001        -0.0001         5.5430        -0.0001        -0.0001        -0.0001         5.5430
    680.00         5.4621        -0.0001        -0.0001        -0.0001         5.4621        -0.0001        -0.0001        -0.0001         5.4621
    690.00         5.3835        -0.0001        -0.0001        -0.0001         5.3835        -0.0001        -0.0001        -0.0001         5.3835
    700.00         5.3071        -0.0001        -0.0001        -0.0001         5.3071        -0.0001        -0.0001        -0.0001         5.3071
    710.00         5.2329        -0.0001        -0.0001        -0.0001         5.2329        -0.0001        -0.0001        -0.0001         5.2329
    720.00         5.1607        -0.0001        -0.0001        -0.0001         5.1607        -0.0001        -0.0001        -0.0001         5.1607
    730.00         5.0904        -0.0000        -0.0000        -0.0000         5.0904        -0.0000        -0.0000        -0.0000         5.0904
    740.00         5.0221        -0.0000        -0.0000        -0.0000         5.0221        -0.0000        -0.0000        -0.0000         5.0221
    750.00         4.9555        -0.0000        -0.0000        -0.0000         4.9555        -0.0000        -0.0000        -0.0000         4.9555
    760.00         4.8907        -0.0000        -0.0000        -0.0000         4.8907        -0.0000        -0.0000        -0.0000         4.8907
    770.00         4.8276        -0.0000        -0.0000        -0.0000         4.8276        -0.0000        -0.0000        -0.0000         4.8276
    780.00         4.7660        -0.0000        -0.0000        -0.0000         4.7660        -0.0000        -0.0000        -0.0000         4.7660
    790.00         4.7061        -0.0000        -0.0000        -0.0000         4.7061        -0.0000        -0.0000        -0.0000         4.7061
    800.00         4.6475        -0.0000        -0.0000        -0.0000         4.6475        -0.0000        -0.0000        -0.0000         4.6475
    810.00         4.5905        -0.0000        -0.0000        -0.0000         4.5905        -0.0000        -0.0000        -0.0000         4.5905
    820.00         4.5348        -0.0000        -0.0000        -0.0000         4.5348        -0.0000        -0.0000        -0.0000         4.5348
    830.00         4.4804        -0.0000        -0.0000        -0.0000         4.4804        -0.0000        -0.0000        -0.0000         4.4804
    840.00         4.4273        -0.0000        -0.0000        -0.0000         4.4273        -0.0000        -0.0000        -0.0000         4.4273
    850.00         4.3755        -0.0000        -0.0000        -0.0000         4.3755        -0.0000        -0.0000        -0.0000         4.3755
    860.00         4.3249        -0.0000        -0.0000        -0.0000         4.3249        -0.0000        -0.0000        -0.0000         4.3249
    870.00         4.2754        -0.0000        -0.0000        -0.0000         4.2754        -0.0000        -0.0000        -0.0000         4.2754
    880.00         4.2270        -0.0000        -0.0000        -0.0000         4.2270        -0.0000        -0.0000        -0.0000         4.2270
    890.00         4.1797        -0.0000        -0.0000        -0.0000         4.1797        -0.0000        -0.0000        -0.0000         4.1797
    900.00         4.1335        -0.0000        -0.0000        -0.0000         4.1335        -0.0000        -0.0000        -0.0000         4.1335
    910.00         4.0883        -0.0000        -0.0000        -0.0000         4.0883        -0.0000        -0.0000        -0.0000         4.0883
    920.00         4.0440        -0.0000        -0.0000        -0.0000         4.0440        -0.0000        -0.0000        -0.0000         4.0440
    930.00         4.0007        -0.0000        -0.0000        -0.0000         4.0007        -0.0000        -0.0000        -0.0000         4.0007
    940.00         3.9583        -0.0000        -0.0000        -0.0000         3.9583        -0.0000        -0.0000        -0.0000         3.9583
    950.00         3.9168        -0.0000        -0.0000        -0.0000         3.9168        -0.0000        -0.0000        -0.0000         3.9168
    960.00         3.8761        -0.0000        -0.0000        -0.0000         3.8761        -0.0000        -0.0000        -0.0000         3.8761
    970.00         3.8363        -0.0000        -0.0000        -0.0000         3.8363        -0.0000        -0.0000        -0.0000         3.8363
    980.00         3.7973        -0.0000        -0.0000        -0.0000         3.7973        -0.0000        -0.0000        -0.0000         3.7973
    990.00         3.7591        -0.0000        -0.0000        -0.0000         3.7591        -0.0000        -0.0000        -0.0000         3.7591
   1000.00         3.7216        -0.0000        -0.0000        -0.0000         3.7216        -0.0000        -0.0000        -0.0000         3.7216
