# k-axis, Phonon energy [meV], band-1, band-2, band-3, band-4, band-5, band-6, band-7
     1     0.000000    0.000000     0.000000     0.000000 
     2     0.018962    0.862226     0.862226     1.367697 
     3     0.037924    1.723504     1.723504     2.733067 
     4     0.056885    2.582890     2.582890     4.093800 
     5     0.075847    3.439442     3.439442     5.447597 
     6     0.094809    4.292222     4.292222     6.792193 
     7     0.113771    5.140301     5.140301     8.125362 
     8     0.132732    5.982758     5.982758     9.444922 
     9     0.151694    6.818683     6.818683    10.748751 
    10     0.170656    7.647176     7.647176    12.034793 
    11     0.189618    8.467353     8.467353    13.301058 
    12     0.208579    9.278343     9.278343    14.545656 
    13     0.227541   10.079294    10.079294    15.766772 
    14     0.246503   10.869368    10.869368    16.962683 
    15     0.265465   11.647747    11.647747    18.131777 
    16     0.284426   12.413634    12.413634    19.272555 
    17     0.303388   13.166254    13.166254    20.383626 
    18     0.322350   13.904865    13.904865    21.463703 
    19     0.341312   14.628710    14.628710    22.511631 
    20     0.360273   15.337095    15.337095    23.526395 
    21     0.379235   16.029349    16.029349    24.507077 
    22     0.398197   16.704792    16.704792    25.452908 
    23     0.417159   17.362804    17.362804    26.363244 
    24     0.436120   18.002789    18.002789    27.237563 
    25     0.455082   18.624139    18.624139    28.075457 
    26     0.474044   19.226310    19.226310    28.876678 
    27     0.493006   19.808793    19.808793    29.641052 
    28     0.511967   20.371055    20.371055    30.368541 
    29     0.530929   20.912636    20.912636    31.059234 
    30     0.549891   21.433080    21.433080    31.713303 
    31     0.568853   21.931975    21.931975    32.331021 
    32     0.587815   22.408901    22.408901    32.912772 
    33     0.606776   22.863487    22.863487    33.458979 
    34     0.625738   23.295396    23.295396    33.970185 
    35     0.644700   23.704282    23.704282    34.446950 
    36     0.663662   24.089847    24.089847    34.889931 
    37     0.682623   24.451819    24.451819    35.299784 
    38     0.701585   24.789913    24.789913    35.677229 
    39     0.720547   25.103929    25.103929    36.022972 
    40     0.739509   25.393608    25.393608    36.337757 
    41     0.758470   25.658789    25.658789    36.622303 
    42     0.777432   25.899261    25.899261    36.877305 
    43     0.796394   26.114887    26.114887    37.103470 
    44     0.815356   26.305518    26.305518    37.301404 
    45     0.834317   26.471044    26.471044    37.471715 
    46     0.853279   26.611328    26.611328    37.614937 
    47     0.872241   26.726319    26.726319    37.731528 
    48     0.891203   26.815919    26.815919    37.821884 
    49     0.910164   26.880079    26.880079    37.886317 
    50     0.929126   26.918761    26.918761    37.925060 
    51     0.948088   26.931940    26.931940    37.938240 
    52     0.948088   26.931940    26.931952    37.938240 
    53     0.974904   26.907603    26.969407    37.917944 
    54     1.001720   26.836388    27.078447    37.858421 
    55     1.028536   26.718967    27.256420    37.759795 
    56     1.055352   26.556454    27.499074    37.622301 
    57     1.082168   26.350362    27.800754    37.446237 
    58     1.108984   26.102650    28.154581    37.232000 
    59     1.135800   25.815649    28.552780    36.980035 
    60     1.162616   25.492061    28.986859    36.690889 
    61     1.189432   25.134924    29.447928    36.365157 
    62     1.216248   24.747586    29.926826    36.003482 
    63     1.243064   24.333604    30.414377    35.606585 
    64     1.269880   23.896773    30.901457    35.175172 
    65     1.296696   23.440985    31.379189    34.710048 
    66     1.323512   22.970184    31.838932    34.211971 
    67     1.350328   22.488298    32.272416    33.681771 
    68     1.377144   21.999073    32.671730    33.120228 
    69     1.403960   21.506067    32.528137    33.029363 
    70     1.430775   21.012465    31.906290    33.338222 
    71     1.457591   20.521033    31.255445    33.591625 
    72     1.484407   20.033978    30.576307    33.783310 
    73     1.511223   19.552861    29.869596    33.907476 
    74     1.538039   19.078576    29.135945    33.958705 
    75     1.564855   18.611233    28.375984    33.932074 
    76     1.591671   18.150188    27.590261    33.823046 
    77     1.618487   17.694029    26.779333    33.627616 
    78     1.645303   17.240622    25.943683    33.342177 
    79     1.672119   16.787190    25.083795    32.963678 
    80     1.698935   16.330435    24.200103    32.489542 
    81     1.725751   15.866626    23.293028    31.917709 
    82     1.752567   15.391770    22.362992    31.246704 
    83     1.779383   14.901751    21.410441    30.475586 
    84     1.806199   14.392466    20.435822    29.604019 
    85     1.833015   13.860009    19.439593    28.632264 
    86     1.859831   13.300760    18.422287    27.561200 
    87     1.886647   12.711521    17.384488    26.392329 
    88     1.913463   12.089618    16.326802    25.127808 
    89     1.940279   11.432964    15.249974    23.770425 
    90     1.967095   10.740133    14.154784    22.323566 
    91     1.993911   10.010382    13.042126    20.791285 
    92     2.020727    9.243679    11.912985    19.178231 
    93     2.047543    8.440697    10.768447    17.489623 
    94     2.074359    7.602800     9.609695    15.731277 
    95     2.101175    6.732014     8.438014    13.909490 
    96     2.127991    5.830980     7.254783    12.031060 
    97     2.154807    4.902907     6.061467    10.103231 
    98     2.181623    3.951499     4.859614     8.133619 
    99     2.208439    2.980895     3.650844     6.130176 
   100     2.235255    1.995577     2.436832     4.101121 
   101     2.262071    1.000301     1.219300     2.054876 
   102     2.288887    0.000000     0.000000     0.000000 
   103     2.288887    0.000000     0.000000     0.000000 
   104     2.305308    0.660496     0.660496     1.282783 
   105     2.321729    1.319887     1.319887     2.563755 
   106     2.338151    1.977076     1.977076     3.841114 
   107     2.354572    2.630970     2.630970     5.113068 
   108     2.370994    3.280487     3.280487     6.377842 
   109     2.387415    3.924563     3.924563     7.633687 
   110     2.403836    4.562154     4.562154     8.878876 
   111     2.420258    5.192235     5.192235    10.111724 
   112     2.436679    5.813811     5.813811    11.330583 
   113     2.453100    6.425918     6.425918    12.533845 
   114     2.469522    7.027623     7.027623    13.719962 
   115     2.485943    7.618033     7.618034    14.887432 
   116     2.502364    8.196297     8.196297    16.034805 
   117     2.518786    8.761606     8.761607    17.160716 
   118     2.535207    9.313202     9.313202    18.263841 
   119     2.551629    9.850372     9.850373    19.342950 
   120     2.568050   10.372466    10.372466    20.396867 
   121     2.584471   10.878880    10.878880    21.424500 
   122     2.600893   11.369075    11.369076    22.424833 
   123     2.617314   11.842572    11.842573    23.396935 
   124     2.633735   12.298952    12.298952    24.339940 
   125     2.650157   12.737866    12.737866    25.253089 
   126     2.666578   13.159014    13.159014    26.135691 
   127     2.682999   13.562172    13.562172    26.987123 
   128     2.699421   13.947192    13.947192    27.806854 
   129     2.715842   14.313962    14.313962    28.594450 
   130     2.732264   14.662458    14.662458    29.349513 
   131     2.748685   14.992715    14.992715    30.071771 
   132     2.765106   15.304823    15.304823    30.760988 
   133     2.781528   15.598916    15.598916    31.416991 
   134     2.797949   15.875193    15.875193    32.039693 
   135     2.814370   16.133914    16.133914    32.629069 
   136     2.830792   16.375365    16.375365    33.185107 
   137     2.847213   16.599881    16.599881    33.707893 
   138     2.863634   16.807820    16.807820    34.197540 
   139     2.880056   16.999592    16.999592    34.654171 
   140     2.896477   17.175606    17.175606    35.077984 
   141     2.912899   17.336285    17.336285    35.469165 
   142     2.929320   17.482073    17.482073    35.827926 
   143     2.945741   17.613405    17.613405    36.154514 
   144     2.962163   17.730715    17.730715    36.449153 
   145     2.978584   17.834411    17.834424    36.712077 
   146     2.995005   17.924904    17.924904    36.943511 
   147     3.011427   18.002553    18.002553    37.143677 
   148     3.027848   18.067680    18.067680    37.312760 
   149     3.044269   18.120582    18.120582    37.450936 
   150     3.060691   18.161508    18.161508    37.558365 
   151     3.077112   18.190643    18.190643    37.635146 
   152     3.093534   18.208149    18.208149    37.681390 
   153     3.109955   18.214100    18.214100    37.697136 
