# k-axis, Phonon energy [meV], band-1, band-2, band-3, band-4, band-5, band-6, band-7
     1     0.000000    0.000000     0.000000     0.000000 
     2     0.017294    0.566922     0.566922     1.007751 
     3     0.034588    1.131943     1.131943     2.012337 
     4     0.051882    1.693168     1.693168     3.010603 
     5     0.069176    2.248721     2.248721     3.999427 
     6     0.086470    2.796752     2.796752     4.975733 
     7     0.103764    3.335441     3.335441     5.936496 
     8     0.121058    3.863016     3.863016     6.878769 
     9     0.138351    4.377750     4.377750     7.799688 
    10     0.155645    4.877976     4.877976     8.696493 
    11     0.172939    5.362093     5.362093     9.566531 
    12     0.190233    5.828573     5.828573    10.407282 
    13     0.207527    6.275971     6.275971    11.216360 
    14     0.224821    6.702927     6.702927    11.991535 
    15     0.242115    7.108180     7.108180    12.730738 
    16     0.259409    7.490569     7.490569    13.432080 
    17     0.276703    7.849044     7.849044    14.093848 
    18     0.293997    8.182668     8.182668    14.714554 
    19     0.311291    8.490626     8.490626    15.292871 
    20     0.328585    8.772232     8.772232    15.827746 
    21     0.345879    9.026933     9.026933    16.318310 
    22     0.363173    9.254312     9.254312    16.763943 
    23     0.380466    9.454100     9.454100    17.164275 
    24     0.397760    9.626174     9.626174    17.519180 
    25     0.415054    9.770569     9.770569    17.828820 
    26     0.432348    9.887476     9.887476    18.093567 
    27     0.449642    9.977252     9.977252    18.314140 
    28     0.466936   10.040424    10.040424    18.491456 
    29     0.484230   10.077692    10.077692    18.626792 
    30     0.501524   10.089937    10.089937    18.721649 
    31     0.518818   10.078223    10.078223    18.777862 
    32     0.536112   10.043802    10.043802    18.797525 
    33     0.553406    9.988121     9.988121    18.783044 
    34     0.570700    9.912822     9.912822    18.737110 
    35     0.587994    9.819750     9.819750    18.662685 
    36     0.605288    9.710953     9.710953    18.563017 
    37     0.622581    9.588678     9.588678    18.441591 
    38     0.639875    9.455378     9.455378    18.302163 
    39     0.657169    9.313696     9.313696    18.148664 
    40     0.674463    9.166463     9.166463    17.985245 
    41     0.691757    9.016665     9.016665    17.816149 
    42     0.709051    8.867428     8.867428    17.645726 
    43     0.726345    8.721969     8.721969    17.478328 
    44     0.743639    8.583545     8.583545    17.318245 
    45     0.760933    8.455380     8.455380    17.169618 
    46     0.778227    8.340588     8.340588    17.036303 
    47     0.795521    8.242068     8.242068    16.921844 
    48     0.812815    8.162396     8.162396    16.829306 
    49     0.830109    8.103727     8.103727    16.761191 
    50     0.847403    8.067686     8.067686    16.719360 
    51     0.864696    8.055289     8.055289    16.704978 
    52     0.864696    8.055288     8.055305    16.704978 
    53     0.889154    8.064021     8.130535    16.705326 
    54     0.913611    8.088567     8.345442    16.706107 
    55     0.938068    8.125815     8.684043    16.706689 
    56     0.962526    8.170964     9.123989    16.706007 
    57     0.986983    8.217976     9.640597    16.702697 
    58     1.011440    8.260118    10.209948    16.695110 
    59     1.035898    8.290519    10.810668    16.681410 
    60     1.060355    8.302680    11.424643    16.659713 
    61     1.084812    8.290931    12.037086    16.628098 
    62     1.109270    8.250811    12.636302    16.584755 
    63     1.133727    8.179383    13.213305    16.528022 
    64     1.158184    8.075492    13.761507    16.456448 
    65     1.182641    7.939973    14.276285    16.368893 
    66     1.207099    7.775826    14.754748    16.264490 
    67     1.231556    7.588338    15.195324    16.142667 
    68     1.256013    7.385150    15.597577    16.003165 
    69     1.280471    7.176203    15.846008    15.961855 
    70     1.304928    6.973510    15.671444    16.289026 
    71     1.329385    6.790624    15.479907    16.580217 
    72     1.353843    6.641697    15.271956    16.836583 
    73     1.378300    6.540074    15.048172    17.059028 
    74     1.402757    6.496547    14.809151    17.248036 
    75     1.427215    6.517593    14.555326    17.403482 
    76     1.451672    6.604122    14.287046    17.524548 
    77     1.476129    6.751193    14.004384    17.609623 
    78     1.500586    6.948726    13.707179    17.656327 
    79     1.525044    7.182951    13.394973    17.661497 
    80     1.549501    7.438054    13.067021    17.621364 
    81     1.573958    7.697634    12.722307    17.531640 
    82     1.598416    7.945772    12.359566    17.387674 
    83     1.622873    8.167711    11.977341    17.184682 
    84     1.647330    8.350243    11.574044    16.917914 
    85     1.671788    8.481887    11.148036    16.582883 
    86     1.696245    8.552965    10.697706    16.175509 
    87     1.720702    8.555608    10.221556    15.692372 
    88     1.745160    8.483731     9.718284    15.130792 
    89     1.769617    8.332996     9.186858    14.489034 
    90     1.794074    8.100766     8.626590    13.766330 
    91     1.818531    7.786052     8.037182    12.963026 
    92     1.842989    7.389439     7.418780    12.080595 
    93     1.867446    6.771992     6.913029    11.121668 
    94     1.891903    6.097913     6.360349    10.090012 
    95     1.916361    5.398114     5.736252     8.990504 
    96     1.940818    4.674635     5.046820     7.829070 
    97     1.965275    3.929950     4.299232     6.612610 
    98     1.989733    3.166935     3.501643     5.348883 
    99     2.014190    2.388816     2.663031     4.046406 
   100     2.038647    1.599103     1.793050     2.714309 
   101     2.063105    0.801534     0.901869     1.362199 
   102     2.087562    0.000000     0.000000     0.000000 
   103     2.087562    0.000000     0.000000     0.000000 
   104     2.102539    0.533111     0.533111     0.821805 
   105     2.117516    1.064080     1.064080     1.641525 
   106     2.132493    1.590773     1.590773     2.457088 
   107     2.147470    2.111072     2.111072     3.266437 
   108     2.162447    2.622885     2.622885     4.067549 
   109     2.177424    3.124151     3.124151     4.858441 
   110     2.192401    3.612853     3.612853     5.637177 
   111     2.207378    4.087018     4.087018     6.401883 
   112     2.222355    4.544732     4.544732     7.150752 
   113     2.237332    4.984146     4.984146     7.882055 
   114     2.252309    5.403476     5.403476     8.594147 
   115     2.267286    5.801019     5.801019     9.285483 
   116     2.282263    6.175157     6.175157     9.954617 
   117     2.297240    6.524357     6.524357    10.600214 
   118     2.312217    6.847185     6.847185    11.221058 
   119     2.327194    7.142304     7.142304    11.816059 
   120     2.342171    7.408486     7.408486    12.384256 
   121     2.357148    7.644609     7.644609    12.924828 
   122     2.372125    7.849665     7.849665    13.437089 
   123     2.387102    8.022762     8.022762    13.920499 
   124     2.402079    8.163125     8.163125    14.374700 
   125     2.417055    8.270100     8.270100    14.799431 
   126     2.432032    8.343155     8.343155    15.194642 
   127     2.447009    8.381875     8.381875    15.560395 
   128     2.461986    8.385970     8.385970    15.896964 
   129     2.476963    8.355264     8.355264    16.204719 
   130     2.491940    8.289697     8.289697    16.484220 
   131     2.506917    8.189318     8.189318    16.736197 
   132     2.521894    8.054279     8.054279    16.961481 
   133     2.536871    7.884824     7.884824    17.161101 
   134     2.551848    7.681280     7.681280    17.336185 
   135     2.566825    7.444033     7.444033    17.487999 
   136     2.581802    7.173510     7.173510    17.617942 
   137     2.596779    6.870140     6.870141    17.727491 
   138     2.611756    6.534309     6.534310    17.818232 
   139     2.626733    6.166287     6.166287    17.891851 
   140     2.641710    5.766110     5.766111    17.950035 
   141     2.656687    5.333410     5.333411    17.994569 
   142     2.671664    4.867092     4.867093    18.027200 
   143     2.686641    4.364763     4.364764    18.049727 
   144     2.701618    3.821574     3.821576    18.063874 
   145     2.716595    3.227534     3.227535    18.071312 
   146     2.731572    2.559964     2.559965    18.073643 
   147     2.746549    1.753112     1.753114    18.072354 
   148     2.761526    0.175287     0.175306    18.068796 
   149     2.776503   -1.589836    -1.589834    18.064171 
   150     2.791480   -2.135872    -2.135870    18.059472 
   151     2.806457   -2.457825    -2.457824    18.055517 
   152     2.821434   -2.634687    -2.634685    18.052889 
   153     2.836411   -2.692582    -2.692582    18.051947 
