# k-axis, Phonon energy [meV], band-1, band-2, band-3, band-4, band-5, band-6, band-7
     1     0.000000    0.000000     0.000000     0.000000 
     2     0.015978    0.309965     0.309965     0.601515 
     3     0.031955    0.619629     0.619629     1.201604 
     4     0.047933    0.928692     0.928692     1.798848 
     5     0.063911    1.236853     1.236853     2.391842 
     6     0.079889    1.543815     1.543815     2.979200 
     7     0.095866    1.849277     1.849277     3.559565 
     8     0.111844    2.152944     2.152944     4.131614 
     9     0.127822    2.454519     2.454519     4.694061 
    10     0.143800    2.753709     2.753709     5.245673 
    11     0.159777    3.050223     3.050223     5.785264 
    12     0.175755    3.343770     3.343770     6.311708 
    13     0.191733    3.634066     3.634066     6.823945 
    14     0.207710    3.920824     3.920824     7.320984 
    15     0.223688    4.203765     4.203765     7.801909 
    16     0.239666    4.482610     4.482610     8.265883 
    17     0.255644    4.757087     4.757087     8.712153 
    18     0.271621    5.026924     5.026924     9.140055 
    19     0.287599    5.291854     5.291854     9.549018 
    20     0.303577    5.551620     5.551620     9.938564 
    21     0.319555    5.805960     5.805960    10.308313 
    22     0.335532    6.054624     6.054624    10.657987 
    23     0.351510    6.297364     6.297364    10.987406 
    24     0.367488    6.533941     6.533941    11.296497 
    25     0.383465    6.764116     6.764116    11.585288 
    26     0.399443    6.987660     6.987660    11.853909 
    27     0.415421    7.204350     7.204350    12.102593 
    28     0.431399    7.413968     7.413968    12.331673 
    29     0.447376    7.616303     7.616303    12.541581 
    30     0.463354    7.811153     7.811153    12.732845 
    31     0.479332    7.998321     7.998321    12.906070 
    32     0.495310    8.177614     8.177614    13.061975 
    33     0.511287    8.348855     8.348855    13.201316 
    34     0.527265    8.511869     8.511869    13.324949 
    35     0.543243    8.666491     8.666491    13.433803 
    36     0.559220    8.812562     8.812562    13.528822 
    37     0.575198    8.949933     8.949933    13.611008 
    38     0.591176    9.078464     9.078464    13.681429 
    39     0.607154    9.198025     9.198025    13.741113 
    40     0.623131    9.308492     9.308492    13.791138 
    41     0.639109    9.409752     9.409752    13.832548 
    42     0.655087    9.501702     9.501702    13.866370 
    43     0.671065    9.584247     9.584247    13.893608 
    44     0.687042    9.657301     9.657301    13.915180 
    45     0.703020    9.720790     9.720790    13.931967 
    46     0.718998    9.774646     9.774646    13.944750 
    47     0.734975    9.818818     9.818818    13.954234 
    48     0.750953    9.853257     9.853257    13.960979 
    49     0.766931    9.877929     9.877929    13.965467 
    50     0.782909    9.892808     9.892808    13.968033 
    51     0.798886    9.897878     9.897878    13.968889 
    52     0.798886    9.897878     9.897884    13.968876 
    53     0.821482    9.888932     9.914066    13.961760 
    54     0.844078    9.862708     9.961104    13.940857 
    55     0.866674    9.819313    10.037665    13.906180 
    56     0.889270    9.758932    10.141628    13.857765 
    57     0.911866    9.681851    10.270213    13.795676 
    58     0.934462    9.588468    10.420127    13.719924 
    59     0.957058    9.479324    10.587732    13.630622 
    60     0.979654    9.355124    10.769195    13.527817 
    61     1.002250    9.216761    10.960625    13.411611 
    62     1.024846    9.065341    11.158181    13.282114 
    63     1.047441    8.902198    11.358160    13.139462 
    64     1.070037    8.728907    11.557054    12.983781 
    65     1.092633    8.547280    11.751579    12.815230 
    66     1.115229    8.359356    11.938695    12.633971 
    67     1.137825    8.167371    12.115595    12.440190 
    68     1.160421    7.973715    12.234096    12.279696 
    69     1.183017    7.780861    12.015895    12.428611 
    70     1.205613    7.591284    11.785818    12.560129 
    71     1.228209    7.407352    11.544106    12.672169 
    72     1.250805    7.231208    11.291016    12.762762 
    73     1.273401    7.064633    11.026813    12.830021 
    74     1.295997    6.908927    10.751777    12.872137 
    75     1.318592    6.764780    10.466196    12.887337 
    76     1.341188    6.632192    10.170367    12.873860 
    77     1.363784    6.510418     9.864596    12.830021 
    78     1.386380    6.397959     9.549195    12.754145 
    79     1.408976    6.292620     9.224485    12.644621 
    80     1.431572    6.191595     8.890791    12.499899 
    81     1.454168    6.091602     8.548442    12.318546 
    82     1.476764    5.989044     8.197775    12.099224 
    83     1.499360    5.880166     7.839129    11.840769 
    84     1.521956    5.761223     7.472850    11.542203 
    85     1.544552    5.628625     7.099287    11.202775 
    86     1.567148    5.479067     6.718792    10.821986 
    87     1.589744    5.309629     6.331727    10.399631 
    88     1.612339    5.117860     5.938454     9.935823 
    89     1.634935    4.901826     5.539343     9.431012 
    90     1.657531    4.660158     5.134772     8.886011 
    91     1.680127    4.392055     4.725122     8.302005 
    92     1.702723    4.097301     4.310783     7.680555 
    93     1.725319    3.776244     3.892151     7.023601 
    94     1.747915    3.429777     3.469629     6.333455 
    95     1.770511    3.043628     3.059312     5.612784 
    96     1.793107    2.614566     2.666733     4.864590 
    97     1.815703    2.182866     2.254359     4.092184 
    98     1.838299    1.748957     1.824886     3.299156 
    99     1.860895    1.313276     1.381336     2.489330 
   100     1.883490    0.876260     0.926992     1.666730 
   101     1.906086    0.438353     0.465340     0.835528 
   102     1.928682    0.000000     0.000000     0.000000 
   103     1.928682    0.000000     0.000000     0.000000 
   104     1.942519    0.279722     0.279722     0.508894 
   105     1.956357    0.558782     0.558782     1.016859 
   106     1.970194    0.836521     0.836521     1.522969 
   107     1.984031    1.112287     1.112287     2.026306 
   108     1.997868    1.385436     1.385436     2.525966 
   109     2.011705    1.655338     1.655338     3.021060 
   110     2.025542    1.921378     1.921378     3.510719 
   111     2.039379    2.182959     2.182959     3.994099 
   112     2.053216    2.439510     2.439510     4.470382 
   113     2.067053    2.690479     2.690479     4.938783 
   114     2.080891    2.935343     2.935343     5.398549 
   115     2.094728    3.173610     3.173610     5.848969 
   116     2.108565    3.404821     3.404821     6.289367 
   117     2.122402    3.628547     3.628547     6.719115 
   118     2.136239    3.844404     3.844404     7.137628 
   119     2.150076    4.052040     4.052040     7.544370 
   120     2.163913    4.251147     4.251147     7.938855 
   121     2.177750    4.441458     4.441458     8.320650 
   122     2.191588    4.622753     4.622753     8.689371 
   123     2.205425    4.794855     4.794855     9.044693 
   124     2.219262    4.957634     4.957634     9.386341 
   125     2.233099    5.111006     5.111007     9.714097 
   126     2.246936    5.254938     5.254938    10.027799 
   127     2.260773    5.389442     5.389442    10.327334 
   128     2.274610    5.514577     5.514578    10.612648 
   129     2.288447    5.630453     5.630454    10.883737 
   130     2.302284    5.737222     5.737223    11.140644 
   131     2.316122    5.835085     5.835085    11.383464 
   132     2.329959    5.924285     5.924285    11.612335 
   133     2.343796    6.005106     6.005106    11.827438 
   134     2.357633    6.077874     6.077874    12.028995 
   135     2.371470    6.142946     6.142947    12.217258 
   136     2.385307    6.200720     6.200720    12.392516 
   137     2.399144    6.251613     6.251613    12.555083 
   138     2.412981    6.296075     6.296076    12.705297 
   139     2.426819    6.334572     6.334572    12.843497 
   140     2.440656    6.367583     6.367584    12.970056 
   141     2.454493    6.395599     6.395600    13.085358 
   142     2.468330    6.419112     6.419112    13.189749 
   143     2.482167    6.438606     6.438607    13.283626 
   144     2.496004    6.454560     6.454561    13.367313 
   145     2.509841    6.467432     6.467433    13.441180 
   146     2.523678    6.477654     6.477655    13.505538 
   147     2.537515    6.485629     6.485631    13.560684 
   148     2.551353    6.491722     6.491723    13.606892 
   149     2.565190    6.496251     6.496252    13.644383 
   150     2.579027    6.499487     6.499488    13.673357 
   151     2.592864    6.501643     6.501644    13.693988 
   152     2.606701    6.502877     6.502879    13.706373 
   153     2.620538    6.503288     6.503288    13.710589 
