# k-axis, Phonon energy [meV], band-1, band-2, band-3, band-4, band-5, band-6, band-7
     1     0.000000  -12.352939   -12.352939   -12.352939   -11.046406   -11.046406     0.000000     0.000000     0.000000     9.276088     9.276088     9.276088    15.681995    15.681995    15.681995    16.826268    16.826268    16.826268    17.112315    17.437105    20.935238    20.935238    20.935238    22.444806    22.444806    24.090306    24.090306    24.867561    24.867561    24.867561    26.674905    26.674905    26.674905    30.737097    31.913816    31.913816    31.913816 
     2     0.008876  -12.352213   -12.351630   -12.348403   -11.049365   -11.045346     0.169232     0.214221     0.499283     9.263349     9.271646     9.275019    15.610929    15.617736    15.686322    16.678695    16.884018    16.886014    17.112451    17.586129    20.925282    20.929820    20.933812    22.435148    22.439735    24.090380    24.097435    24.870351    24.870611    24.883257    26.672908    26.676256    26.676702    30.734282    31.910084    31.911101    31.913754 
     3     0.017752  -12.350032   -12.347740   -12.334899   -11.058204   -11.042160     0.339529     0.427626     0.998623     9.225145     9.258419     9.271838    15.429671    15.452929    15.698968    16.398698    17.029050    17.032868    17.113282    17.870638    20.895800    20.913715    20.929585    22.407104    22.424759    24.090554    24.118511    24.878533    24.879798    24.929452    26.666970    26.680335    26.682095    30.725753    31.898913    31.903067    31.913617 
     4     0.026628  -12.346406   -12.341378   -12.312734   -11.072790   -11.036820     0.511920     0.639339     1.497983     9.161524     9.236689     9.266614    15.186285    15.230831    15.719027    16.092406    17.113579    17.217462    17.219991    18.184940    20.847894    20.887332    20.922592    22.363128    22.400508    24.090566    24.152531    24.891613    24.895122    25.003654    26.657200    26.687253    26.691158    30.711371    31.880354    31.889962    31.913407 
     5     0.035505  -12.341341   -12.332728   -12.282406   -11.092915   -11.029287     0.687367     0.848361     1.997138     9.072608     9.206913     9.259479    14.908161    14.976697    15.744939    15.782927    17.116753    17.416549    17.422934    18.506594    20.783313    20.851390    20.912971    22.306692    22.368062    24.090070    24.197995    24.908834    24.916645    25.102280    26.643897    26.697209    26.704015    30.690827    31.854491    31.872220    31.913183 
     6     0.044381  -12.334853   -12.322041   -12.244574   -11.118296   -11.019510     0.866729     1.053494     2.495560     8.958644     9.169698     9.250654    14.608018    14.702119    15.478060    15.774608    17.122431    17.610144    17.632436    18.828495    20.704276    20.806931    20.900858    22.241603    22.328910    24.088620    24.253116    24.929192    24.944379    25.221202    26.627507    26.710512    26.720827    30.663750    31.821451    31.850450    31.912973 
     7     0.053257  -12.326952   -12.309634   -12.200030   -11.148578   -11.007432     1.050742     1.253239     2.992283     8.820096     9.125766     9.240482    14.291993    14.412452    15.181971    15.805367    17.132201    17.792928    17.839011    19.146653    20.613547    20.755380    20.886464    22.171455    22.285070    24.085706    24.315949    24.951558    24.978300    25.355968    26.608811    26.727633    26.741817    30.629656    31.781393    31.825393    31.912874 
     8     0.062133  -12.317651   -12.295884   -12.149657   -11.183356   -10.992997     1.239990     1.445668     3.485720     8.657804     9.075926     9.229499    13.963334    14.110499    14.897350    15.834205    17.147674    17.959743    18.038235    19.457000    20.514884    20.698796    20.870012    22.099249    22.239198    24.080859    24.384560    24.974717    25.018358    25.501632    26.589185    26.749293    26.767270    30.588036    31.734516    31.797932    31.912973 
     9     0.071009  -12.306961   -12.281216   -12.094389   -11.222169   -10.976160     1.434889     1.628228     3.973374     8.473212     9.021046     9.218529    13.623889    13.798292    14.625921    15.857922    17.170474    18.106560    18.226573    19.751365    20.415762    20.640488    20.851787    22.027080    22.194751    24.073593    24.457138    24.997455    25.064392    25.652107    26.571133    26.776605    26.797533    30.538282    31.681056    31.769020    31.913369 
    10     0.079885  -12.294891   -12.266091   -12.035173   -11.264526   -10.956890     1.635667     1.797476     4.451343     8.268805     8.962022     9.208851    13.274787    13.477804    14.368588    15.873457    17.201940    18.229895    18.400529    19.995581    20.345775    20.588367    20.832111    21.955879    22.156069    24.063514    24.532009    25.018581    25.116178    25.798701    26.559318    26.811518    26.833041    30.479875    31.621297    31.739711    31.914188 
    11     0.088761  -12.281445   -12.250994   -11.972925   -11.309903   -10.935177     1.842349     1.948651     4.913363     8.048964     8.899748     9.202460    12.916782    13.151129    14.125711    15.878292    17.242804    18.326748    18.556037    20.056356    20.398541    20.586309    20.811332    21.885644    22.128074    24.050236    24.607712    25.036992    25.173408    25.927875    26.562033    26.857465    26.874277    30.412344    31.555563    31.710972    31.915552 
    12     0.097638  -12.266631   -12.236412   -11.908510   -11.357757   -10.911050     2.054729     2.075025     5.348729     7.821866     8.835097     9.202477    12.550384    12.820511    13.897389    15.870717    17.292941    18.394764    18.688088    19.970587    20.414138    20.762707    20.789785    21.816029    22.115416    24.033498    24.682905    25.051696    25.235695    26.021071    26.590028    26.920546    26.921823    30.335377    31.484213    31.683783    31.917610 
    13     0.106514  -12.250451   -12.222811   -11.842720   -11.407534   -10.884567     2.166847     2.272341     5.737349     7.604153     8.768885     9.213771    12.176029    12.488406    13.683660    15.849888    17.351249    18.432441    18.790421    19.856996    20.385622    20.767729    21.012341    21.747084    22.121516    24.013042    24.756463    25.061826    25.302545    26.065307    26.645496    26.976337    27.009998    30.248864    31.407692    31.658950    31.920523 
    14     0.115390  -12.232916   -12.210618   -11.776271   -11.458670   -10.855841     2.209629     2.494408     6.038452     7.431861     8.701831     9.243748    11.794193    12.157561    13.484722    15.815806    17.415855    18.439459    18.856304    19.738955    20.366753    20.745152    21.265149    21.679701    22.148048    23.988692    24.827392    25.066661    25.373387    26.065840    26.713462    27.038488    27.133903    30.152977    31.326485    31.637167    31.924453 
    15     0.124266  -12.214040   -12.200197   -11.709811   -11.510603   -10.825031     2.181148     2.719758     6.182738     7.368134     8.634495     9.302847    11.405528    11.831377    13.301033    15.768954    17.484341    18.416745    18.880480    19.622501    20.369368    20.721682    21.508869    21.615529    22.194974    23.960300    24.894812    25.065657    25.447564    26.037300    26.778564    27.108996    27.291308    30.048227    31.241125    31.618954    31.929586 
    16     0.133142  -12.193848   -12.191837   -11.643930   -11.562768   -10.792352     2.045552     2.946693     6.139994     7.436752     8.567147     9.403039    11.011114    11.514695    13.133437    15.710175    17.554031    18.366335    18.862094    19.509654    20.396830    20.696453    21.556812    21.739397    22.260956    23.927756    24.957955    25.058404    25.524296    25.990857    26.836971    27.188541    27.472914    29.935579    31.152256    31.604709    31.936058 
    17     0.142018  -12.185731   -12.172385   -11.614603   -11.579184   -10.758082     1.737002     3.172771     5.986552     7.558514     8.499539     9.551226    10.612868    11.215698    12.983347    15.640375    17.622232    18.291117    18.805956    19.400316    20.447116    20.668148    21.506191    21.954552    22.343874    23.891008    25.016176    25.044629    25.602787    25.932797    26.890357    27.277683    27.668393    29.816582    31.060585    31.594691    31.944067 
    18     0.150894  -12.181976   -12.149716   -11.665541   -11.516113   -10.722557     1.066676     3.394427     5.802322     7.658801     8.430411     9.735337    10.214327    10.951931    12.852994    15.560432    17.686317    18.194499    18.720583    19.293334    20.514884    20.635107    21.466381    22.152957    22.441161    23.850020    25.024185    25.068880    25.682135    25.866555    26.940631    27.376755    27.869129    29.693842    30.966943    31.589063    31.953762 
    19     0.159771  -12.180570   -12.125942   -11.715013   -11.455267   -10.686180    -1.223170     3.606343     5.623089     7.713434     8.356429     9.822208     9.900251    10.770793    12.745999    15.471167    17.743621    18.080351    18.614841    19.187666    20.594070    20.595731    21.439837    22.333745    22.550214    23.804805    24.997034    25.115534    25.761469    25.794188    26.988909    27.485771    28.066915    29.571933    30.872309    31.587922    31.965292 
    20     0.168647  -12.181421   -12.101222   -11.762415   -11.397220   -10.649415    -2.197322     3.800333     5.455209     7.724817     8.269988     9.449511     9.932190    10.769871    12.668214    15.373309    17.789667    17.954610    18.495870    19.082964    20.548879    20.679455    21.428269    22.496456    22.668540    23.755461    24.963175    25.155691    25.717047    25.839974    27.035612    27.604283    28.250740    29.459694    30.777849    31.591282    31.978781 
    21     0.177523  -12.184350   -12.075822   -11.807065   -11.342573   -10.612787    -2.954357     3.963448     5.288424     7.702808     8.155921     9.120335     9.814863    10.946525    12.629173    15.267468    17.778968    17.864365    18.368654    18.979565    20.494167    20.767096    21.432261    22.641017    22.793909    23.702137    24.922708    25.188930    25.636188    25.916928    27.080765    27.731251    28.401338    29.375115    30.684938    31.599179    31.994328 
    22     0.186399  -12.189120   -12.050271   -11.848048   -11.291967   -10.576875    -3.611182     4.074910     5.104646     7.657087     7.995144     8.868687     9.652035    11.176574    12.643580    15.154199    17.643941    17.878957    18.236541    18.878199    20.431978    20.854254    21.451330    22.767600    22.924311    23.645106    24.875732    25.214879    25.552526    25.991750    27.124158    27.864951    28.486364    29.349860    30.595313    31.611553    32.011996 
    23     0.195275  -12.195438   -12.025854   -11.883721   -11.246075   -10.542307    -4.197742     4.102125     4.883906     7.595464     7.793533     8.712474     9.499057    11.384027    12.729027    15.033964    17.487627    17.897269    18.101725    18.779722    20.363207    20.939057    21.484097    22.876579    23.058024    23.584889    24.822358    25.233178    25.466918    26.064067    27.165419    28.002817    28.479247    29.410188    30.511156    31.628364    32.031832 
    24     0.204151  -12.202979   -12.006439   -11.909878   -11.205579   -10.509747    -4.727629     3.998514     4.607327     7.524122     7.601722     8.633636     9.374779    11.538851    12.894131    14.907194    17.324792    17.906493    17.965694    18.685013    20.288943    21.020276    21.528693    22.968200    23.193509    23.522403    24.762749    25.243543    25.380219    26.133670    27.204014    28.141414    28.394296    29.541830    30.435206    31.649515    32.053826 
    25     0.213027  -12.211401   -12.001629   -11.916603   -11.171160   -10.479882    -5.209199     3.708280     4.257308     7.448144     7.477639     8.605803     9.284673    11.644137    13.126370    14.774263    17.158534    17.829477    17.905675    18.594818    20.210178    21.097106    21.583021    23.042030    23.329354    23.459545    24.697089    25.245688    25.293259    26.200483    27.239274    28.264812    28.276267    29.711906    30.371046    31.674906    32.077916 
    26     0.221904  -12.220355   -12.013966   -11.901053   -11.143454   -10.453401    -5.648463     3.170567     3.814480     7.371939     7.448762     8.613760     9.227800    11.720247    13.400279    14.635517    16.990839    17.693830    17.895000    18.509768    20.127731    21.169114    21.644986    23.095428    23.400630    23.464170    24.625602    25.206944    25.239427    26.264593    27.270182    28.113444    28.401822    29.898756    30.323115    31.704389    32.104013 
    27     0.230780  -12.229499   -12.031695   -11.874701   -11.123018   -10.430984    -6.050074     2.267639     3.248943     7.299512     7.507631     8.651514     9.199735    11.786624    13.693058    14.491303    16.823293    17.559374    17.875077    18.430358    20.042198    21.236063    21.712555    23.120274    23.355588    23.596555    24.548598    25.122129    25.224586    26.326124    27.294866    27.953101    28.511705    30.091533    30.296633    31.737777    32.131971 
    28     0.239656  -12.238502   -12.048145   -11.843949   -11.110282   -10.413270    -6.417806    -0.776276     2.493010     7.234615     7.629290     8.718132     9.194550    11.855860    13.989407    14.341907    16.657271    17.426604    17.846710    18.356888    19.953973    21.297954    21.783819    23.104851    23.338119    23.724862    24.466573    25.039707    25.201117    26.385275    27.309174    27.794010    28.599458    30.284706    30.296869    31.774859    32.161590 
    29     0.248532  -12.247053   -12.061184   -11.810667   -11.105499   -10.400838    -6.754832    -2.617525     1.267891     7.180777     7.787621     8.815480     9.206276    11.934916    14.187676    14.279768    16.493940    17.295941    17.810855    18.289530    19.863295    21.354947    21.857005    23.053821    23.345570    23.847007    24.380295    24.960633    25.169068    26.442256    27.301971    27.651272    28.660023    30.327653    30.475127    31.815400    32.192647 
    30     0.257408  -12.254855   -12.070075   -11.775344   -11.108702   -10.394184    -7.063902    -3.656179    -1.787289     7.141255     7.961528     8.946686     9.229765    12.027129    14.028883    14.558004    16.334303    17.167783    17.768504    18.228259    19.770248    21.407379    21.930549    22.984218    23.362965    23.959631    24.291451    24.885935    25.128601    26.497278    27.248523    27.552894    28.691439    30.389779    30.660775    31.859103    32.224844 
    31     0.266284  -12.261628   -12.074577   -11.737992   -11.119674   -10.393702    -7.347479    -4.471190    -2.851131     7.118945     8.136152     9.114138     9.261061    12.133538    13.865874    14.820011    16.179241    17.042477    17.720722    18.172951    19.674808    21.455731    22.003016    22.906433    23.382020    24.052988    24.207455    24.816990    25.080026    26.550553    27.138342    27.512538    28.695481    30.480334    30.840261    31.905683    32.257885 
    32     0.275160  -12.267097   -12.074691   -11.698402   -11.137929   -10.399666    -7.607819    -5.158896    -3.625701     7.116261     8.303282     9.297413     9.317259    12.253698    13.698947    15.062913    16.029461    16.920307    17.668625    18.123260    19.576913    21.500587    22.073151    22.825127    23.400184    24.061716    24.190308    24.755707    25.023788    26.602227    27.001455    27.503674    28.676549    30.593788    31.012494    31.954804    32.291422 
    33     0.284037  -12.270992   -12.070582   -11.656240   -11.162720   -10.412210    -7.847013    -5.758282    -4.266676     7.135037     8.460706     9.337100     9.551677    12.386170    13.528450    15.284701    15.885520    16.801522    17.613343    18.078726    19.476415    21.542715    22.139890    22.742767    23.417020    23.976505    24.244537    24.704751    24.960497    26.652452    26.863019    27.505124    28.639926    30.723769    31.176618    32.006082    32.325082 
    34     0.292913  -12.273028   -12.062544   -11.611101   -11.193081   -10.431324    -8.067002    -6.289917    -4.824281     7.176445     8.609831     9.379168     9.810665    12.528886    13.354766    15.484085    15.747890    16.686257    17.556027    18.038693    19.373164    21.582910    22.202314    22.661077    23.432840    23.877234    24.284818    24.666788    24.890894    26.701362    26.735494    27.509042    28.590408    30.864424    31.331916    32.059158    32.358482 
    35     0.301789  -12.272903   -12.050969   -11.562581   -11.227882   -10.456825    -8.269560    -6.766202    -5.322425     7.240975     8.753005     9.423161    10.087206    12.679373    13.178343    15.616893    15.660447    16.574613    17.497893    18.002330    19.266976    21.622050    22.259654    22.581457    23.448164    23.774554    24.297873    24.641236    24.815886    26.626738    26.749020    27.512613    28.531778    31.010907    31.477778    32.113610    32.391213 
    36     0.310665  -12.270281   -12.036327   -11.510359   -11.265908   -10.488321    -8.456278    -7.195189    -5.774809     7.328442     8.891984     9.468903    10.375109    12.834980    12.999762    15.492752    15.813612    16.466763    17.440180    17.968657    19.157662    21.660992    22.311342    22.505222    23.463575    23.670448    24.286269    24.620420    24.736465    26.542767    26.795500    27.514683    28.466800    31.159435    31.613722    32.168967    32.422890 
    37     0.319541  -12.264787   -12.019131   -11.454354   -11.305938   -10.525121    -8.628518    -7.582317    -6.190211     7.438049     9.027519     9.516318    10.669023    12.819991    12.992943    15.375615    15.943258    16.363674    17.384178    17.936497    19.045064    21.700529    22.356892    22.433586    23.479593    23.565759    24.258547    24.593032    24.653758    26.487695    26.840852    27.514733    28.397371    31.307107    31.739364    32.224708    32.453092 
    38     0.328417  -12.256000   -11.999899   -11.394984   -11.346832   -10.566028    -8.787402    -7.931325    -6.574707     7.568483     9.159465     9.565305    10.963649    12.640951    13.150509    15.265533    16.044215    16.271767    17.331239    17.904584    18.929043    21.741319    22.367790    22.395970    23.460983    23.496690    24.222431    24.551251    24.568968    26.462961    26.885075    27.512575    28.324744    31.451705    31.854491    32.280226    32.481446 
    39     0.337293  -12.243451   -11.979129   -11.387582   -11.333680   -10.608883    -8.933786    -8.244788    -6.932730     7.718034     9.287022     9.615664    11.251568    12.467392    13.305000    15.162456    16.074081    16.235181    17.282676    17.871630    18.809489    21.783832    22.308986    22.428342    23.356493    23.515200    24.182584    24.483322    24.493278    26.467040    26.928183    27.508112    28.249736    31.591480    31.959093    32.334753    32.507544 
    40     0.346170  -12.226640   -11.957257   -11.427369   -11.273876   -10.649583    -9.068260    -8.524469    -7.267652     7.884709     9.408964     9.667045    11.515131    12.314749    13.453838    15.066273    15.999954    16.289026    17.239865    17.836383    18.686352    21.828303    22.258315    22.453869    23.252548    23.535409    24.141324    24.398111    24.421965    26.496039    26.970150    27.501368    28.172831    31.725069    32.053368    32.387333    32.531050 
    41     0.355046  -12.205028   -11.934656   -11.465584   -11.222800   -10.680258    -9.191169    -8.771618    -7.582108     8.066353     9.523830     9.718921    11.691000    12.244528    13.594754    14.976821    15.894410    16.363116    17.204072    17.797850    18.559645    21.874758    22.216869    22.472441    23.149397    23.557489    24.099567    24.314598    24.342568    26.545035    27.010952    27.492342    28.094314    31.851367    32.137761    32.436863    32.551594 
    42     0.363922  -12.178074   -11.911612   -11.501828   -11.192876   -10.687779    -9.302616    -8.987222    -7.878202     8.260749     9.630072     9.770586    11.670028    12.364249    13.725826    14.893841    15.776839    16.440442    17.176524    17.755300    18.429453    21.922962    22.185638    22.484009    23.047250    23.581517    24.057464    24.234036    24.261051    26.609146    27.050576    27.481122    28.014285    31.969508    32.212905    32.482103    32.568877 
    43     0.372798  -12.145257   -11.888343   -11.535903   -11.196740   -10.658624    -9.402502    -9.172245    -8.157632     8.465698     9.726190     9.821148    11.523095    12.601588    13.845640    14.816974    15.648731    16.521587    17.158224    17.708386    18.295977    21.972442    22.165554    22.488509    22.946429    23.607515    24.014814    24.157677    24.182869    26.684215    27.088948    27.467744    27.932806    32.078771    32.279544    32.521764    32.582576 
    44     0.381674  -12.106095   -11.865001   -11.567785   -11.235441   -10.590550    -9.490543    -9.327834    -8.421779     8.679082     9.810834     9.869549    11.337510    12.867946    13.953490    14.745772    15.509229    16.608993    17.149967    17.657182    18.159499    22.022555    22.157420    22.485930    22.847369    23.635386    23.971707    24.086673    24.112238    26.766885    27.126043    27.452296    27.849851    32.178563    32.338398    32.554606    32.592458 
    45     0.390550  -12.060194   -11.841684   -11.597595   -11.299150   -10.491835    -9.566301    -9.455420    -8.671758     8.898911     9.882902     9.914581    11.136844    13.138619    14.049389    14.679691    15.357316    16.704606    17.152249    17.602197    18.020493    22.072358    22.162020    22.476309    22.750677    23.665030    23.929417    24.022191    24.051091    26.854626    27.161799    27.434840    27.765395    32.268423    32.390159    32.579539    32.598247 
    46     0.399426  -12.007278   -11.818447   -11.625557   -11.377519   -10.370965    -9.629208    -9.556721    -8.908460     9.123350     9.941612     9.954908    10.927761    13.405920    14.134092    14.618035    15.192249    16.809407    17.165192    17.544335    17.879528    22.120834    22.179935    22.459795    22.657122    23.696248    23.890921    23.965309    23.998734    26.945540    27.196166    27.415437    27.679415    32.347969    32.435400    32.595619    32.599748 
    47     0.408303  -11.947237   -11.795299   -11.651964   -11.463323   -10.233131    -9.678572    -9.633628    -9.132580     9.350735     9.986547     9.989107    10.712803    13.666477    14.208976    14.559926    15.013643    16.923394    17.188488    17.484875    17.737409    22.167922    22.210471    22.436735    22.567683    23.728879    23.859877    23.917093    23.952862    27.038203    27.229095    27.394162    27.591873    32.416914    32.474565    32.596772    32.602128 
    48     0.417179  -11.880170   -11.772207   -11.677137   -11.551751   -10.081109    -9.713589    -9.688059    -9.344629     9.579587    10.015704    10.017688    10.493277    13.918317    14.275801    14.504296    14.821511    17.045762    17.221442    17.425352    17.595080    22.216522    22.249637    22.407649    22.483475    23.762726    23.839184    23.878585    23.911217    27.131585    27.260536    27.371052    27.502843    32.475048    32.508002    32.589135    32.598520 
    49     0.426055  -11.806447   -11.749091   -11.701400   -11.639464    -9.916363    -9.733335    -9.721830    -9.544944     9.808603    10.033244    10.035396    10.270093    14.160066    14.336601    14.449894    14.616114    17.175235    17.262975    17.367552    17.453718    22.270837    22.291877    22.373307    22.405616    23.797663    23.830431    23.850752    23.872200    27.224917    27.290428    27.346182    27.412375    32.522248    32.535960    32.576687    32.584386 
    50     0.434931  -11.725428   -11.725427   -11.725426   -11.725421    -9.736660    -9.736659    -9.736655    -9.736653    10.040360    10.040363    10.040365    10.040368    14.394301    14.394301    14.394314    14.394314    17.312468    17.312468    17.312468    17.312468    22.334067    22.334067    22.334067    22.334067    23.834287    23.834287    23.834287    23.834287    27.319154    27.319154    27.319154    27.319154    32.558958    32.558958    32.558958    32.558958 
    51     0.434931  -11.725425   -11.725425   -11.725412   -11.725404    -9.736658    -9.736658    -9.736640    -9.736628    10.040363    10.040365    10.040372    10.040375    14.394301    14.394301    14.394314    14.394314    17.312456    17.312468    17.312468    17.312468    22.334055    22.334055    22.334067    22.334067    23.834287    23.834287    23.834287    23.834287    27.319142    27.319154    27.319154    27.319154    32.558946    32.558946    32.558958    32.558958 
    52     0.450305  -11.812512   -11.755532   -11.705318   -11.643783    -9.915737    -9.733569    -9.721982    -9.545834     9.791028    10.000347    10.034489    10.253725    14.174435    14.348205    14.464796    14.628487    17.165651    17.251581    17.358589    17.442969    22.277036    22.297034    22.379617    22.410662    23.786270    23.825633    23.841391    23.870465    27.210263    27.276257    27.331788    27.398291    32.538849    32.554644    32.593077    32.604632 
    53     0.465679  -11.906385   -11.800380   -11.687919   -11.564805   -10.076810    -9.716319    -9.690143    -9.351999     9.510507     9.888627    10.017815    10.433383    13.976662    14.312784    14.565294    14.864917    17.011221    17.173139    17.394940    17.551353    22.241913    22.269114    22.434801    22.500300    23.707369    23.823538    23.837560    23.916808    27.073277    27.206308    27.315224    27.448589    32.537224    32.580568    32.648546    32.683645 
    54     0.481053  -12.009166   -11.860397   -11.668064   -11.483524   -10.221154    -9.690800    -9.643477    -9.158784     9.200071     9.720249     9.992277    10.591357    13.797325    14.271375    14.695089    15.098111    16.854188    17.075480    17.426753    17.637866    22.222113    22.257671    22.501688    22.597016    23.593506    23.818839    23.833580    23.979133    26.907578    27.112108    27.272872    27.473013    32.550949    32.631524    32.722971    32.796330 
    55     0.496427  -12.119365   -11.931520   -11.643904   -11.397431   -10.348635    -9.664485    -9.585687    -8.973665     8.869923     9.516074     9.960497    10.737598    13.632283    14.208790    14.845601    15.319576    16.702486    16.961543    17.456483    17.702509    22.208153    22.274966    22.580167    22.689419    23.452701    23.794948    23.849314    24.054959    26.716301    26.997488    27.209159    27.472803    32.577865    32.701820    32.814642    32.937010 
    56     0.511801  -12.233782   -12.008171   -11.615749   -11.305493   -10.459971    -9.645017    -9.520854    -8.804621     8.535820     9.298555     9.925371    10.881328    13.474580    14.112581    15.004667    15.522730    16.563430    16.837327    17.484639    17.747278    22.202438    22.320343    22.668565    22.753578    23.308612    23.761796    23.878808    24.139737    26.504668    26.866429    27.128894    27.449160    32.615791    32.786449    32.920397    33.098085 
    57     0.527175  -12.348430   -12.084830   -11.585759   -11.208180   -10.555749    -9.638704    -9.452974    -8.659745     8.219076     9.088612     9.889804    11.028488    13.316357    13.975807    15.158601    15.703319    16.442736    16.710533    17.510105    17.775905    22.209517    22.388532    22.733692    22.766013    23.217053    23.721292    23.924631    24.228345    26.279669    26.723083    27.036405    27.403399    32.662419    32.881281    33.035872    33.271595 
    58     0.542549  -12.459333   -12.156661   -11.558080   -11.107382   -10.635476    -9.649454    -9.385618    -8.546616     7.945320     8.904074     9.856701    11.178869    13.150707    13.799867    15.292797    15.858145    16.345288    16.589652    17.530499    17.793300    22.231660    22.468387    22.602558    22.864640    23.218652    23.674936    23.989547    24.315268    26.049971    26.571803    26.935337    27.337144    32.715408    32.982846    33.156108    33.449978 
    59     0.557922  -12.563017   -12.219625   -11.538907   -11.006437   -10.696966    -9.678225    -9.321542    -8.471212     7.741355     8.759261     9.829053    11.322195    12.973379    13.597321    15.392154    15.978976    16.277669    16.486947    17.542538    17.804743    22.269126    22.372042    22.589937    22.963253    23.268207    23.624662    24.074288    24.393982    25.826559    26.417014    26.828813    27.252354    32.772414    33.087944    33.276133    33.626537 
    60     0.573296  -12.656808   -12.270416   -11.535624   -10.910540   -10.736530    -9.722831    -9.262316    -8.436482     7.630149     8.664977     9.809906    11.432400    12.781706    13.397874    15.444251    16.037173    16.245918    16.433772    17.542587    17.814686    22.142171    22.320417    22.694415    23.054478    23.328821    23.573098    24.176311    24.455477    25.624372    26.263055    26.719748    27.151397    32.831119    33.193624    33.391285    33.795522 
    61     0.588670  -12.738747   -12.306333   -11.554337   -10.829405   -10.748641    -9.778005    -9.208086    -8.441141     7.625303     8.628435     9.802066    11.465333    12.565485    13.259128    15.445552    16.001442    16.242124    16.470855    17.527673    17.825584    21.906572    22.382023    22.804546    23.130044    23.389472    23.525478    24.288104    24.488120    25.464054    26.113920    26.611340    27.037087    32.889241    33.297061    33.497388    33.952121 
    62     0.604044  -12.807692   -12.325168   -11.596955   -10.784100   -10.721572    -9.835743    -9.157603    -8.479528     7.727417     8.653028     9.807266    11.381828    12.303957    13.246668    15.403052    15.898588    16.265135    16.565625    17.495921    17.837437    21.680730    22.449530    22.912843    23.182413    23.426281    23.508740    24.378274    24.501225    25.367858    25.973178    26.507457    26.912711    32.944598    33.395674    33.590720    34.092380 
    63     0.619418  -12.863123   -12.325103   -11.660869   -10.762864   -10.680469    -9.886552    -9.108667    -8.542775     7.924277     8.737893     9.824199    11.189317    11.993933    13.365466    15.327573    15.766276    16.311255    16.675558    17.446280    17.848731    21.474973    22.517781    23.014159    23.209825    23.401535    23.562151    24.348110    24.585370    25.342243    25.843842    26.413121    26.782172    32.995033    33.487072    33.668009    34.213074 
    64     0.634792  -12.905128   -12.304636   -11.741382   -10.743948   -10.658614    -9.922541    -9.058897    -8.620730     8.194459     8.876958     9.842979    10.936749    11.652196    13.566983    15.230633    15.622038    16.373443    16.784226    17.378190    17.857769    21.298227    22.581457    23.100474    23.218863    23.366808    23.633923    24.246372    24.704899    25.368366    25.728751    26.335001    26.650245    33.038538    33.569222    33.726403    34.311663 
    65     0.650166  -12.934325   -12.262502   -11.833924   -10.727108   -10.659189    -9.941605    -9.006566    -8.703705     8.512175     9.056174     9.828801    10.696169    11.298826    13.798714    15.130222    15.473423    16.445203    16.884948    17.292185    17.863472    21.158662    22.635165    23.153835    23.224368    23.345186    23.706811    24.128926    24.818416    25.418578    25.631662    26.281603    26.523004    33.073153    33.640349    33.763436    34.386163 
    66     0.665540  -12.951831   -12.197650   -11.934757   -10.713189   -10.674012    -9.948278    -8.951101    -8.783545     8.851190     9.244494     9.706390    10.571003    10.960983    14.006021    15.063099    15.324176    16.516578    16.974362    17.192629    17.865840    21.063669    22.673177    23.169556    23.224368    23.350802    23.780653    24.014852    24.907421    25.469571    25.559072    26.262460    26.408856    33.097044    33.699053    33.776975    34.435110 
    67     0.680914  -12.959084   -12.109226   -12.040768   -10.700732   -10.691786    -9.949402    -8.893033    -8.854006     9.182910     9.336759     9.492138    10.607370    10.696170    14.118309    15.092792    15.177495    16.565972    17.050647    17.096247    17.866064    21.019234    22.690609    23.184843    23.203700    23.366077    23.858996    23.913882    24.952264    25.505104    25.518307    26.284231    26.320309    33.108450    33.744257    33.765246    34.457464 
    68     0.696288  -12.957757   -12.149109   -11.996661   -10.703393   -10.686575    -9.949374    -8.910511    -8.833493     9.058792     9.339167     9.560626    10.612852    10.744894    14.098534    15.037956    15.253768    16.547387    17.046047    17.112959    17.866423    21.029054    22.687596    23.169209    23.221690    23.360448    23.835849    23.943514    24.943648    25.504075    25.517043    26.274957    26.345626    33.105772    33.726788    33.775252    34.452579 
    69     0.711662  -12.949513   -12.257017   -11.859895   -10.703870   -10.667021    -9.948434    -8.949313    -8.773556     8.691764     9.115058     9.835125    10.748667    10.924110    13.991391    14.912476    15.499409    16.426842    17.076522    17.161535    17.869919    21.093622    22.671107    23.119778    23.281671    23.323713    23.794465    24.031366    24.894738    25.493276    25.503417    26.289228    26.437421    33.087559    33.660458    33.791666    34.420171 
    70     0.727036  -12.935813   -12.361808   -11.699919   -10.693059   -10.637935    -9.943335    -8.966132    -8.713719     8.318586     8.765048    10.091171    11.011378    11.102120    13.846235    14.810019    15.774657    16.236247    17.161609    17.199051    17.879590    21.209792    22.650340    23.049965    23.243374    23.374780    23.800850    24.116478    24.826152    25.457322    25.480109    26.363665    26.548259    33.052510    33.565477    33.793439    34.360214 
    71     0.742410  -12.917662   -12.460969   -11.519934   -10.677608   -10.591574    -9.929212    -8.954666    -8.653551     7.956061     8.372134    10.316248    11.230103    11.343840    13.684962    14.739920    15.939303    16.123723    17.218801    17.284064    17.897344    21.370854    22.631929    22.957315    23.144611    23.482990    23.855364    24.191102    24.752781    25.400750    25.452425    26.482450    26.668991    32.999608    33.441373    33.780818    34.273006 
    72     0.757784  -12.895581   -12.552268   -11.327570   -10.669932   -10.513652    -9.902462    -8.905767    -8.591451     7.614433     7.968863    10.515132    11.305146    11.690563    13.514056    14.708231    15.710671    16.379779    17.238452    17.420331    17.922921    21.567040    22.617733    22.845596    23.032397    23.612574    23.951473    24.246025    24.684182    25.343161    25.418256    26.628139    26.793454    32.928121    33.288072    33.754286    34.159019 
    73     0.773157  -12.869620   -12.633847   -11.137685   -10.679389   -10.385946    -9.863659    -8.808230    -8.524306     7.301955     7.572535    10.691766    11.305242    12.043888    13.334285    14.714033    15.442713    16.659589    17.255611    17.574103    17.953283    21.785580    22.594921    22.734163    22.918199    23.762490    24.081565    24.271403    24.626668    25.298404    25.380256    26.788718    26.917719    32.837690    33.105871    33.714526    34.018996 
    74     0.788531  -12.839530   -12.704218   -10.970250   -10.708681   -10.189211    -9.817922    -8.651567    -8.446967     7.025940     7.195905    10.846182    11.235376    12.387307    13.145773    14.749281    15.177470    16.933387    17.276278    17.741972    17.982915    22.008979    22.504242    22.689022    22.814366    23.930173    24.234916    24.266271    24.581105    25.277204    25.342504    26.957009    27.039418    32.728402    32.895477    33.662355    33.853892 
    75     0.803905  -12.804915   -12.762303   -10.837518   -10.755984    -9.914016    -9.772106    -8.429031    -8.351479     6.792834     6.850529    10.973888    11.105990    12.707566    12.950157    14.802543    14.935263    17.197613    17.305128    17.920379    18.004785    22.206306    22.355788    22.708115    22.743102    24.107861    24.219977    24.423725    24.540874    25.285808    25.311422    27.128609    27.157137    32.600925    32.658080    33.598741    33.664872 
    76     0.819279  -12.807432   -12.765502   -10.817329   -10.737616    -9.732516    -9.566837    -8.226294    -8.137906     6.547621     6.607763    10.929255    11.065524    12.751083    12.990463    14.741247    14.862983    17.345546    17.450036    18.012447    18.104663    22.191255    22.317330    22.739990    22.771617    24.164384    24.276053    24.502081    24.627102    25.297264    25.325779    27.270108    27.300694    32.395329    32.456489    33.453412    33.524725 
    77     0.834653  -12.839270   -12.721092   -10.888247   -10.664787    -9.704972    -9.160255    -8.055846    -7.776706     6.297689     6.473800    10.716704    11.107336    12.554153    13.219516    14.626788    14.921675    17.399279    17.685449    18.005293    18.289207    22.020844    22.322376    22.787202    22.900470    24.107242    24.367835    24.506879    24.846138    25.314373    25.399225    27.377908    27.471216    32.109481    32.297075    33.221321    33.441423 
    78     0.850027  -12.857879   -12.671735   -10.964620   -10.616283    -9.694984    -8.707198    -7.820572    -7.341383     6.109188     6.391190    10.478972    11.085022    12.365775    13.383207    14.619015    14.970721    17.466352    17.858042    18.028713    18.468210    21.847780    22.291356    22.849427    23.043580    24.066774    24.324479    24.596640    25.056606    25.376189    25.520366    27.480117    27.638440    31.803461    32.125524    32.970894    33.350050 
    79     0.865401  -12.863644   -12.617556   -11.043036   -10.591826    -9.706630    -8.223187    -7.497208    -6.821628     5.986407     6.356772    10.226562    10.992715    12.190322    13.491752    14.716761    15.002237    17.544435    17.856889    18.201169    18.636711    21.673192    22.266225    22.916674    23.146273    24.065212    24.239677    24.677264    25.219739    25.479365    25.717779    27.575966    27.800482    31.481002    31.945666    32.705044    33.251907 
    80     0.880775  -12.857309   -12.558715   -11.120901   -10.591725    -9.741353    -7.724638    -7.063522    -6.196802     5.927171     6.363815     9.970870    10.841409    12.027993    13.570702    14.887593    15.009998    17.624922    17.810359    18.415109    18.791537    21.497376    22.258402    22.975961    23.191079    24.112808    24.140716    24.740569    25.333156    25.600940    25.988031    27.663881    27.954986    31.146999    31.762548    32.427676    33.148347 
    81     0.896149  -12.839952   -12.495337   -11.196421   -10.615790    -9.797870    -7.212174    -6.514145    -5.430415     5.921406     6.402367     9.725130    10.657395    11.877298    13.627286    14.981024    15.110050    17.670956    17.813732    18.630140    18.931337    21.320617    22.267279    22.996740    23.208734    24.018794    24.216344    24.797389    25.420153    25.723197    26.294050    27.741095    28.098641    30.807691    31.582628    32.144121    33.040819 
    82     0.911523  -12.812986   -12.427470   -11.268527   -10.662947    -9.873001    -6.663226    -5.861777    -4.457734     5.952212     6.460210     9.504973    10.473621    11.738828    13.634353    14.947698    15.346976    17.673423    17.899836    18.841365    19.056048    21.143834    22.285802    22.952169    23.239047    23.903059    24.333927    24.854407    25.493846    25.835089    26.606182    27.803842    28.226626    30.471172    31.413817    31.861893    32.930836 
    83     0.926897  -12.778098   -12.355036   -11.336780   -10.731246    -9.962626    -6.050994    -5.108416    -3.128891     6.001893     6.524780     9.327996    10.322849    11.616033    13.539992    14.935077    15.600552    17.699546    18.015521    19.046675    19.166093    20.969308    22.301894    22.867627    23.257743    23.807892    24.452761    24.913260    25.559816    25.929177    26.900127    27.849503    28.332220    30.147745    31.265016    31.591988    32.819948 
    84     0.942271  -12.737222   -12.277945   -11.401258   -10.818036   -10.062385    -5.353854    -4.222775     0.480653     6.065736     6.588450     9.211615    10.232536    11.514429    13.305955    14.977057    15.864555    17.768814    18.143717    19.236662    19.268476    20.801488    22.298671    22.776465    23.219322    23.764424    24.559967    24.972585    25.620827    26.001681    27.143722    27.882854    28.407475    29.850107    31.144111    31.350798    32.709743 
    85     0.957645  -12.692403   -12.196156   -11.462470   -10.920208   -10.168067    -4.550662    -3.107870     3.030279     6.165985     6.668605     9.169030    10.217338    11.441270    12.942409    15.071170    16.134894    17.876478    18.281459    19.328036    19.441651    20.648113    22.258266    22.699362    23.111657    23.778831    24.647410    25.029380    25.678465    26.052066    27.288172    27.920569    28.446591    29.594175    31.050828    31.165076    32.601806 
    86     0.973019  -12.645724   -12.109832   -11.521268   -11.034425   -10.275817    -3.610120    -1.316738     3.942445     6.300552     6.871293     9.205452    10.268630    11.405778    12.494704    15.195584    16.405939    18.009310    18.428102    19.376971    19.621670    20.520847    22.176427    22.637310    22.960278    23.823749    24.710627    25.078997    25.733400    26.082689    27.300991    27.955915    28.447918    29.404981    30.966261    31.076157    32.497700 
    87     0.988393  -12.599133   -12.019519   -11.578740   -11.157258   -10.382235    -2.456840     2.331396     4.346420     6.389376     7.321940     9.320029    10.337522    11.418048    12.038066    15.331615    16.668999    18.151453    18.582184    19.394489    19.789663    20.433404    22.068676    22.569146    22.789210    23.875845    24.749607    25.114529    25.785199    26.098137    27.214453    27.932037    28.390602    29.327643    30.913991    31.069140    32.398937 
    88     1.003766  -12.554388   -11.926483   -11.635979   -11.285162   -10.484452    -0.479681     3.209705     4.659181     6.479008     7.877469     9.516514    10.298844    11.473443    11.735336    15.467633    16.911120    18.287918    18.737048    19.386170    19.941613    20.394313    21.955953    22.468300    22.613072    23.923974    24.769146    25.127547    25.831580    26.104125    27.081075    27.830175    28.234399    29.388554    30.921046    31.106644    32.306932 
    89     1.019140  -12.512967   -11.834408   -11.692835   -11.413962   -10.580173     1.964721     3.376770     5.153446     6.648804     8.337856     9.755418    10.081721    11.548882    11.788797    15.596424    17.114720    18.406678    18.873500    19.379661    20.073726    20.399892    21.856509    22.313325    22.443269    23.964107    24.776919    25.111430    25.866158    26.106146    26.938498    27.677927    27.994833    29.540901    30.979267    31.173072    32.223010 
    90     1.034514  -12.475959   -11.780867   -11.720319   -11.534792   -10.667717     2.453097     3.223098     5.675798     6.910443     8.565342     9.502746    10.379860    11.736434    12.051318    15.712766    17.259938    18.498510    18.955538    19.422930    20.183845    20.437434    21.785803    22.090632    22.291815    23.996106    24.780155    25.064751    25.875085    26.108985    26.811592    27.498962    27.718333    29.727676    31.072351    31.257937    32.148312 
    91     1.049888  -12.444121   -11.834604   -11.715938   -11.581204   -10.745999     2.560906     2.957705     6.062515     7.207192     8.479798     9.273383    10.940432    12.025069    12.407063    15.811864    17.333098    18.553719    18.963386    19.538281    20.274908    20.493547    21.754485    21.797011    22.171641    24.021621    24.782151    24.992298    25.840011    26.113337    26.716215    27.292697    27.456536    29.917750    31.185508    31.352781    32.083817 
    92     1.065262  -12.417800   -11.905785   -11.815451   -11.506845   -10.814485     2.462073     2.651373     6.128392     7.487170     8.335089     9.243679    11.553308    12.386709    12.820524    15.888496    17.337921    18.558380    18.908971    19.701203    20.355768    20.556851    21.439514    21.765049    22.095939    24.042288    24.777192    24.907086    25.754477    26.103803    26.657845    27.052188    27.257734    30.096170    31.307380    31.450850    32.030208 
    93     1.080636  -12.396964   -11.983365   -11.923297   -11.417367   -10.873101     2.238222     2.338564     5.742751     7.790375     8.413486     9.256116    12.175982    12.803774    13.274142    15.937009    17.296400    18.497357    18.793347    19.890607    20.429474    20.612431    21.043473    21.811504    22.073548    24.059038    24.729187    24.850799    25.629133    26.043970    26.630631    26.837839    27.107372    30.255447    31.429550    31.546835    31.987807 
    94     1.096010  -12.381227   -12.064538   -12.022721   -11.330567   -10.922117     1.937444     2.032847     5.073012     8.123802     8.603503     9.267438    12.791500    13.259773    13.758408    15.952631    17.237063    18.363087    18.611704    20.094480    20.384135    20.612072    20.778974    21.886933    22.101642    24.072068    24.622788    24.843373    25.481250    25.897909    26.623515    26.709954    26.985983    30.391874    31.545744    31.636621    31.956403 
    95     1.111384  -12.369954   -12.144148   -12.111805   -11.250856   -10.962044     1.611150     1.716669     4.285396     8.445536     8.800347     9.273529    13.392121    13.738311    14.267333    15.934926    17.182810    18.159115    18.366261    19.960185    20.304651    20.667602    20.793380    21.986849    22.164797    24.081404    24.499341    24.848444    25.327081    25.680932    26.627172    26.663511    26.887567    30.504064    31.651152    31.717060    31.935128 
    96     1.126758  -12.362342   -12.215658   -12.190668   -11.181171   -10.993505     1.282303     1.385944     3.449473     8.729527     8.970391     9.275988    13.973005    14.223432    14.794905    15.892054    17.145008    17.897021    18.065113    19.440448    20.502139    20.750520    20.838658    22.104531    22.243537    24.087231    24.376154    24.854940    25.180264    25.441675    26.637115    26.656655    26.809448    30.592263    31.742079    31.785732    31.922445 
    97     1.142132  -12.357539   -12.274349   -12.257586   -11.124005   -11.017150     0.956513     1.045405     2.593612     8.962028     9.104305     9.276578    14.528063    14.699056    15.326271    15.847434    17.124204    17.592712    17.720089    18.892345    20.676926    20.826049    20.879174    22.227420    22.321582    24.090070    24.263630    24.860494    25.052205    25.217160    26.650468    26.661713    26.749974    30.657824    31.815648    31.840854    31.916209 
    98     1.157506  -12.354756   -12.317616   -12.309132   -11.081485   -11.033569     0.634793     0.699251     1.730411     9.134328     9.199911     9.276445    15.043795    15.144331    15.687103    15.983762    17.115265    17.268393    17.350257    18.333964    20.815139    20.885063    20.909847    22.337997    22.386684    24.090789    24.172021    24.864462    24.952587    25.032975    26.663126    26.668358    26.708094    30.702630    31.869691    31.881097    31.914027 
    99     1.172880  -12.353359   -12.344053   -12.341761   -11.055267   -11.043222     0.316459     0.350217     0.865285     9.240309     9.257078     9.276195    15.478110    15.514436    15.691963    16.479484    16.969936    17.001787    17.112835    17.789679    20.904330    20.922456    20.928828    22.416278    22.429743    24.090529    24.111531    24.866793    24.889283    24.910682    26.671830    26.673181    26.683186    30.728604    31.902707    31.905584    31.913729 
   100     1.188254  -12.352939   -12.352939   -12.352939   -11.046406   -11.046406     0.000000     0.000000     0.000000     9.276088     9.276088     9.276088    15.681995    15.681995    15.681995    16.826268    16.826268    16.826268    17.112315    17.437105    20.935238    20.935238    20.935238    22.444806    22.444806    24.090306    24.090306    24.867561    24.867561    24.867561    26.674905    26.674905    26.674905    30.737097    31.913816    31.913816    31.913816 
   101     1.188254  -12.352939   -12.352939   -12.352939   -11.046406   -11.046406     0.000000     0.000000     0.000000     9.276088     9.276088     9.276088    15.681995    15.681995    15.681995    16.826268    16.826268    16.826268    17.112315    17.437105    20.935238    20.935238    20.935238    22.444806    22.444806    24.090306    24.090306    24.867561    24.867561    24.867561    26.674905    26.674905    26.674905    30.737097    31.913816    31.913816    31.913816 
   102     1.199125  -12.349990   -12.349990   -12.348993   -11.047831   -11.047831     0.245454     0.245454     0.604412     9.259544     9.270680     9.270680    15.582240    15.582240    15.689260    16.622904    16.911108    16.911108    17.112550    17.644871    20.924588    20.924588    20.931370    22.433797    22.433797    24.095711    24.095711    24.865404    24.884770    24.884770    26.675351    26.675549    26.675549    30.732857    31.908832    31.908832    31.914039 
   103     1.209996  -12.341182   -12.341182   -12.337457   -11.052066   -11.052066     0.490421     0.490421     1.209703     9.210493     9.254347     9.254347    15.340665    15.340665    15.702662    16.276690    17.107789    17.107789    17.113753    18.011430    20.893159    20.893159    20.919827    22.401971    22.401971    24.111506    24.111506    24.858957    24.935267    24.935267    26.676752    26.677558    26.677558    30.719975    31.893979    31.893979    31.914944 
   104     1.220867  -12.326637   -12.326637   -12.319212   -11.058985   -11.058985     0.734340     0.734340     1.816463     9.130624     9.226752     9.226752    15.031025    15.031025    15.653554    15.984841    17.117447    17.342087    17.342087    18.404670    20.842451    20.842451    20.900821    22.352577    22.352577    24.136538    24.136538    24.848344    25.015965    25.015965    26.679343    26.681265    26.681265    30.697944    31.869381    31.869381    31.917188 
   105     1.231738  -12.306555   -12.306555   -12.295653   -11.068384   -11.068384     0.976491     0.976491     2.424679     9.022610     9.187317     9.187317    14.688097    14.688097    15.374425    15.931157    17.126362    17.578442    17.578442    18.802286    20.774771    20.774771    20.874723    22.290277    22.290277    24.169145    24.169145    24.833764    25.122365    25.122365    26.683521    26.687241    26.687241    30.666056    31.835324    31.835324    31.921775 
   106     1.242609  -12.281216   -12.281216   -12.268571   -11.079986   -11.079986     1.215901     1.215902     3.033350     8.890016     9.135211     9.135211    14.327067    14.327067    14.999956    15.980067    17.144587    17.800565    17.800565    19.196753    20.692993    20.692993    20.842179    22.220452    22.220452    24.207417    24.207417    24.815490    25.249097    25.249097    26.689881    26.696502    26.696502    30.623506    31.792216    31.792216    31.929921 
   107     1.253480  -12.250976   -12.250976   -12.240012   -11.093449   -11.093449     1.451221     1.451221     3.639913     8.737422     9.069327     9.069327    13.956094    13.956094    14.611960    16.044078    17.177441    17.998858    17.998858    19.582976    20.600356    20.600356    20.804427    22.148754    22.148754    24.249409    24.249409    24.793930    25.390236    25.390236    26.699242    26.710710    26.710710    30.569513    31.740616    31.740616    31.942889 
   108     1.264351  -12.216261   -12.216261   -12.212111   -11.108372   -11.108372     1.680558     1.680558     4.239221     8.571082     8.988283     8.988283    13.580794    13.580794    14.223544    16.102845    17.230728    18.166182    18.166182    19.954817    20.500105    20.500105    20.764480    22.081024    22.081024    24.293261    24.293261    24.769605    25.539087    25.539087    26.712681    26.732506    26.732506    30.503543    31.681242    31.681242    31.961895 
   109     1.275222  -12.186922   -12.177572   -12.177572   -11.124313   -11.124313     1.901241     1.901241     4.821353     8.400859     8.890472     8.890472    13.206002    13.206002    13.838548    16.146362    17.308935    18.296435    18.296435    20.297113    20.395256    20.395256    20.734366    22.023051    22.023051    24.337262    24.337262    24.743160    25.687825    25.687825    26.731576    26.765943    26.765943    30.425423    31.615061    31.615061    31.987894 
   110     1.286093  -12.166269   -12.135475   -12.135475   -11.140789   -11.140788     2.109474     2.109474     5.366425     8.245245     8.774198     8.774198    12.836406    12.836406    13.458959    16.169819    17.413227    18.384734    18.384734    20.288112    20.288112    20.521343    20.799356    21.980414    21.980414    24.379874    24.379874    24.715401    25.827191    25.827191    26.757636    26.816638    26.816638    30.335439    31.543289    31.543289    32.021592 
   111     1.296964  -12.151633   -12.090603   -12.090603   -11.157294   -11.157292     2.299796     2.299796     5.832732     8.143118     8.638020     8.638020    12.476888    12.476888    13.086213    16.173005    17.540926    18.428077    18.428077    20.179840    20.179840    20.528695    21.054705    21.957862    21.957862    24.419758    24.419758    24.687195    25.947315    25.947315    26.792834    26.890890    26.890890    30.234383    31.467500    31.467500    32.063422 
   112     1.307835  -12.144084   -12.043653   -12.043653   -11.173300   -11.173298     2.464251     2.464253     6.142080     8.168323     8.481391     8.481391    12.132445    12.132445    12.721675    16.158561    17.686776    18.426267    18.426267    20.070316    20.070316    20.479041    21.336946    21.958532    21.958532    24.455749    24.455749    24.659473    26.040524    26.040524    26.839277    26.992628    26.992628    30.123681    31.389740    31.389740    32.113523 
   113     1.318706  -12.144260   -11.995395   -11.995395   -11.188263   -11.188263     2.591087     2.591087     6.216668     8.305736     8.305736     8.392626    11.807958    11.807958    12.366804    16.130083    17.844615    18.382192    18.382192    19.958375    19.958375    20.418799    21.596275    21.983390    21.983390    24.486856    24.486856    24.633003    26.104634    26.104634    26.898899    27.119931    27.119931    30.005454    31.312600    31.312600    32.171868 
   114     1.329577  -12.152392   -11.946673   -11.946673   -11.201622   -11.201622     2.662690     2.662690     6.073510     8.115969     8.115969     8.790999    11.507636    11.507636    12.023300    16.090980    18.008380    18.301196    18.301196    19.842615    19.842615    20.356351    21.821769    22.031048    22.031048    24.512210    24.512210    24.608257    26.143067    26.143067    26.972928    27.264851    27.264851    29.882738    31.239389    31.239389    32.238271 
   115     1.340448  -12.168353   -11.898419   -11.898419   -11.212783   -11.212783     2.652350     2.652350     5.782588     7.922100     7.922101     9.282741    11.234437    11.234437    11.693314    16.043967    18.172245    18.189800    18.189800    19.722081    19.722081    20.295923    22.008372    22.098369    22.098369    24.531104    24.531104    24.585184    26.161553    26.161553    27.060929    27.416429    27.416429    29.759986    31.174287    31.174287    32.312424 
   116     1.351319  -12.191726   -11.851670   -11.851670   -11.221114   -11.221114     2.518610     2.518610     5.385069     7.740003     7.740003     9.811468    10.989654    10.989654    11.380179    15.991126    18.054513    18.054513    18.330431    19.596614    19.596614    20.241396    22.153887    22.181262    22.181262    24.542957    24.542957    24.562967    26.165371    26.165371    27.159580    27.563432    27.563432    29.643643    31.122340    31.122340    32.393978 
   117     1.362190  -12.221876   -11.807575   -11.807575   -11.225925   -11.225925     2.191148     2.191148     4.889051     7.589706     7.589706    10.341370    10.772915    10.772915    11.094078    15.933959    17.901150    17.901150    18.476814    19.466732    19.466732    20.197297    22.258836    22.275524    22.275524    24.540167    24.547259    24.547259    26.158441    26.158441    27.261144    27.695396    27.695396    29.543256    31.089423    31.089423    32.482475 
   118     1.373061  -12.258020   -11.767393   -11.767393   -11.226473   -11.226473     1.499810     1.499810     4.278244     7.490198     7.490198    10.582593    10.582593    10.687573    11.007578    15.873544    17.734632    17.734632    18.604749    19.333305    19.333305    20.168905    22.326095    22.377336    22.377336    24.514925    24.543639    24.543639    26.143439    26.143439    27.352319    27.802949    27.802949    29.472290    31.081687    31.081687    32.577456 
   119     1.383932  -12.299278   -11.732439   -11.732438   -11.222014   -11.222014    -1.160640    -1.160639     3.504039     7.452751     7.452751    10.416451    10.416451    10.494877    11.469344    15.810673    17.558965    17.558965    18.707479    19.197324    19.197324    20.161814    22.360524    22.483463    22.483463    24.485381    24.531799    24.531799    26.122164    26.122164    27.414854    27.878416    27.878416    29.447680    31.104636    31.104636    32.678425 
   120     1.394803  -12.344725   -11.703960   -11.703960   -11.211909   -11.211909    -2.425547    -2.425547     2.423869     7.477648     7.477648    10.262023    10.272249    10.272249    11.976552    15.746030    17.377471    17.377471    18.779561    19.059681    19.059681    20.180287    22.368137    22.591264    22.591264    24.450083    24.511577    24.511577    26.095868    26.095868    27.430476    27.916725    27.916725    29.485271    31.161914    31.161914    32.784812 
   121     1.405674  -12.393421   -11.682957   -11.682955   -11.195807   -11.195807    -3.340837    -3.340836    -0.932052     7.556520     7.556520    10.045634    10.148212    10.148212    12.469363    15.680371    17.192840    17.192840    18.818837    18.921047    18.921047    20.225180    22.355491    22.698643    22.698643    24.408141    24.482864    24.482864    26.065394    26.065394    27.389153    27.916167    27.916167    29.592055    31.254341    31.254341    32.896072 
   122     1.416545  -12.444443   -11.670013   -11.670013   -11.173790   -11.173790    -4.117910    -4.117910    -2.813809     7.677191     7.677191     9.851083    10.043302    10.043302    12.939061    15.614934    17.007328    17.007328    18.781904    18.781904    18.827479    20.292699    22.329306    22.803914    22.803914    24.359218    24.445707    24.445707    26.031411    26.031411    27.293242    27.878465    27.878465    29.762465    31.379685    31.379685    33.011609 
   123     1.427416  -12.496899   -11.665266   -11.665266   -11.146406   -11.146405    -4.802741    -4.802741    -3.903052     7.827295     7.827295     9.680179     9.957393     9.957393    13.379475    15.552113    16.822797    16.822797    18.642513    18.642513    18.810692    20.375543    22.296340    22.905665    22.905665    24.303427    24.400256    24.400256    25.994415    25.994415    27.153195    27.807834    27.807834    29.983137    31.533520    31.533520    33.130791 
   124     1.438287  -12.549937   -11.668526   -11.668526   -11.114516   -11.114516    -5.414614    -5.414614    -4.772609     7.995736     7.995736     9.533891     9.891375     9.891375    13.782584    15.496992    16.640732    16.640732    18.502924    18.502924    18.774391    20.465180    22.263337    23.002654    23.002654    24.241128    24.346870    24.346870    25.954791    25.954791    26.980813    27.709890    27.709890    30.239763    31.710327    31.710327    33.253011 
   125     1.449158  -12.602765   -11.679481   -11.679481   -11.079086   -11.079086    -5.964541    -5.964541    -5.523375     8.172759     8.172759     9.412864     9.847262     9.847262    14.134737    15.460728    16.462362    16.462362    18.363013    18.363013    18.723447    20.553652    22.236978    23.093631    23.093631    24.172815    24.286132    24.286132    25.912923    25.912923    26.785941    27.590472    27.590472    30.520541    31.904530    31.904530    33.377598 
   126     1.460029  -12.654626   -11.697859   -11.697859   -11.040988   -11.040988    -6.459928    -6.459927    -6.195198     8.349538     8.349540     9.317584     9.828224     9.828224    14.410691    15.466232    16.288554    16.288554    18.222543    18.222543    18.661110    20.634562    22.223489    23.177193    23.177193    24.098935    24.219059    24.219059    25.869146    25.869146    26.576117    27.455098    27.455098    30.816556    32.111043    32.111043    33.503896 
   127     1.470900  -12.704838   -11.723503   -11.723503   -11.000904   -11.000904    -6.906197    -6.906196    -6.808289     8.517931     8.517931     9.248457     9.838334     9.838334    14.576316    15.545542    16.119929    16.119929    18.081132    18.081132    18.589065    20.703829    22.227903    23.251482    23.251482    24.019848    24.147299    24.147299    25.823794    25.823794    26.357069    27.308641    27.308641    31.121261    32.325566    32.325566    33.631249 
   128     1.481771  -12.752794   -11.756366   -11.756366   -10.959290   -10.959290    -7.374365    -7.307519    -7.307519     8.671006     8.671007     9.205821     9.881583     9.881583    14.625189    15.703170    15.956834    15.956834    17.938319    17.938319    18.507796    20.760290    22.253145    23.313683    23.313683    23.935777    24.073631    24.073631    25.777240    25.777240    26.133447    27.155327    27.155327    31.429761    32.544514    32.544514    33.758961 
   129     1.492642  -12.797935   -11.796460   -11.796460   -10.916388   -10.916388    -7.900828    -7.667237    -7.667237     8.804686     8.804686     9.189957     9.959901     9.959901    14.594405    15.799379    15.799379    15.900261    17.793560    17.793560    18.417093    20.805927    22.299328    23.359357    23.359357    23.846772    24.002702    24.002702    25.729867    25.729867    25.909254    26.998765    26.998765    31.738334    32.764976    32.764976    33.886375 
   130     1.503513  -12.839766   -11.843772   -11.843772   -10.872250   -10.872249    -8.392618    -7.988148    -7.988148     8.919504     8.919504     9.201048    10.071097    10.071097    14.521071    15.647466    15.647466    16.098121    17.646259    17.646259    18.316495    20.845179    22.364083    23.381624    23.381624    23.752770    23.941790    23.941790    25.682110    25.682110    25.688160    26.841980    26.841980    32.044044    32.984557    32.984557    34.012810 
   131     1.514384  -12.877889   -11.898181   -11.898181   -10.826775   -10.826775    -8.853179    -8.272735    -8.272735     9.020505     9.020505     9.239159    10.208756    10.208756    14.425445    15.500847    15.500847    16.275028    17.495785    17.495785    18.205781    20.883563    22.443393    23.372524    23.372524    23.653723    23.899513    23.899513    25.473613    25.634477    25.634477    26.687538    26.687538    32.344510    33.201286    33.201286    34.137620 
   132     1.525255  -12.911984   -11.959375   -11.959374   -10.779746   -10.779746    -9.284969    -8.523346    -8.523345     9.114918     9.114918     9.304201    10.364392    10.364392    14.317781    15.359151    15.359151    16.419390    17.341492    17.341492    18.085421    20.926138    22.532671    23.328585    23.328585    23.549778    23.880247    23.880247    25.268872    25.587488    25.587488    26.537485    26.537485    32.637785    33.413540    33.413540    34.260150 
   133     1.536126  -12.941813   -12.026789   -12.026789   -10.730867   -10.730867    -9.689786    -8.742322    -8.742321     9.209647     9.209647     9.395889    10.529833    10.529835    14.203942    15.221979    15.221979    16.524191    17.182711    17.182711    17.956780    20.976623    22.627205    23.255263    23.255263    23.441779    23.879701    23.879701    25.076815    25.541715    25.541715    26.393495    26.393495    32.922232    33.619917    33.619917    34.379778 
   134     1.546997  -12.967205   -12.099575   -12.099575   -10.679808   -10.679808   -10.068950    -8.932093    -8.932093     9.310054     9.310054     9.513732    10.698348    10.698348    14.087909    15.088986    15.088986    16.584619    17.018846    17.018846    17.822113    21.036964    22.721740    23.162489    23.162489    23.332243    23.889371    23.889371    24.899746    25.497801    25.497801    26.256807    26.256807    33.196414    33.819277    33.819277    34.495910 
   135     1.557868  -12.988120   -12.176610   -12.176610   -10.626258   -10.626258   -10.423436    -9.095205    -9.095205     9.419822     9.419822     9.657014    10.864708    10.864708    13.972744    14.959861    14.959861    16.597550    16.849366    16.849366    17.683962    21.107459    22.807807    23.058978    23.058978    23.228273    23.902191    23.902191    24.739180    25.456330    25.456330    26.128326    26.128326    33.459127    34.010578    34.010578    34.607951 
   136     1.568739  -13.004597   -12.256547   -12.256546   -10.753959   -10.569974   -10.569974    -9.234293    -9.234293     9.541252     9.541252     9.824786    11.024867    11.024867    13.861100    14.834480    14.834480    16.562290    16.673909    16.673921    17.543963    21.187141    22.862867    22.950930    22.950930    23.152360    23.913820    23.913820    24.595611    25.417921    25.417921    26.008586    26.008586    33.709282    34.192965    34.192965    34.715367 
   137     1.579610  -13.016784   -12.337898   -12.337897   -11.061038   -10.510841   -10.510841    -9.352020    -9.352020     9.675593     9.675593    10.015876    11.175618    11.175618    13.755296    14.712868    14.712868    16.481591    16.492353    16.492353    17.401386    21.274137    22.842670    22.842707    22.842707    23.149843    23.921891    23.921891    24.468668    25.383045    25.383045    25.897909    25.897909    33.945910    34.365657    34.365657    34.817613 
   138     1.590481  -13.024905   -12.419126   -12.419126   -11.345040   -10.448920   -10.448920    -9.450995    -9.450995     9.823301     9.823301    10.228893    11.314355    11.314355    13.657463    14.595149    14.595149    16.304907    16.304907    16.361951    17.252610    21.366130    22.737498    22.737498    22.760472    23.209168    23.925276    23.925276    24.357260    25.352112    25.352112    25.796357    25.796357    34.168181    34.527984    34.527984    34.914243 
   139     1.601352  -13.029319   -12.498746   -12.498746   -11.606212   -10.384504   -10.384504    -9.533694    -9.533694     9.984221     9.984221    10.462243    11.438953    11.438953    13.569499    14.481533    14.481533    16.112304    16.112304    16.212232    17.092416    21.460653    22.637719    22.637719    22.661709    23.286767    23.923652    23.923652    24.259886    25.325320    25.325320    25.703868    25.703868    34.375315    34.679338    34.679338    35.004774 
   140     1.612223  -13.030434   -12.575378   -12.575378   -11.844709   -10.318155   -10.318155    -9.602389    -9.602389    10.157690    10.157690    10.714131    11.547744    11.547744    13.493041    14.372084    14.372084    15.915933    15.915933    16.041648    16.915968    21.555299    22.545168    22.545168    22.564199    23.366374    23.917292    23.917292    24.174935    25.302706    25.302706    25.620244    25.620244    34.566641    34.819200    34.819200    35.088807 
   141     1.623094  -13.028748   -12.647783   -12.647783   -12.060622   -10.250728   -10.250728    -9.659119    -9.659118    10.342590    10.342590    10.982556    11.639591    11.639591    13.429439    14.266428    14.266428    15.718048    15.718048    15.858431    16.720178    21.647813    22.461097    22.461097    22.474177    23.442820    23.906828    23.906828    24.100894    25.284122    25.284122    25.545286    25.545286    34.741539    34.947098    34.947098    35.165960 
   142     1.633965  -13.024855   -12.714918   -12.714918   -12.253982   -10.183382   -10.183382    -9.705661    -9.705661    10.537340    10.537340    11.265289    11.714012    11.714012    13.379661    14.163463    14.163463    15.522073    15.522073    15.669547    16.503932    21.736211    22.386325    22.386325    22.394197    23.513886    23.893202    23.893202    24.036499    25.269244    25.269244    25.478745    25.478745    34.899490    35.062610    35.062610    35.235909 
   143     1.644836  -13.019351   -12.775879   -12.775879   -12.424792   -10.117563   -10.117563    -9.743542    -9.743542    10.739825    10.739825    11.559800    11.771329    11.771329    13.344166    14.060969    14.060969    15.332805    15.332805    15.481023    16.267974    21.818707    22.321235    22.321235    22.325252    23.578368    23.877519    23.877519    23.980732    25.257652    25.257652    25.420400    25.420400    35.039984    35.165390    35.165390    35.298333 
   144     1.655707  -13.012891   -12.829959   -12.829959   -12.573023   -10.054957   -10.054957    -9.774040    -9.774040    10.947197    10.947197    11.812751    11.812751    11.863109    13.322816    13.955598    13.955598    15.156431    15.156431    15.298277    16.014534    21.893715    22.265903    22.265903    22.267440    23.635448    23.860943    23.860943    23.932864    25.248862    25.248862    25.370065    25.370065    35.162625    35.255114    35.255114    35.352984 
   145     1.666578  -13.006085   -12.876588   -12.876588   -12.698614    -9.997420    -9.997419    -9.798211    -9.798211    11.155531    11.155531    11.840354    11.840354    12.171467    13.314597    13.843731    13.843731    15.000055    15.000055    15.126676    15.747307    21.959858    22.220105    22.220105    22.220303    23.684581    23.844652    23.844652    23.892459    25.242390    25.242390    25.327601    25.327601    35.267053    35.331510    35.331510    35.399625 
   146     1.677449  -12.999551   -12.915294   -12.915294   -12.801543    -9.946874    -9.946873    -9.816911    -9.816911    11.359112    11.359113    11.856884    11.856884    12.479628    13.317498    13.723619    13.723619    14.870161    14.870161    14.971800    15.471861    22.015910    22.183171    22.183506    22.183506    23.725334    23.829700    23.829700    23.859269    25.237766    25.237766    25.292924    25.292924    35.352959    35.394368    35.394368    35.438059 
   147     1.688320  -12.993835   -12.945768   -12.945768   -12.881745    -9.905181    -9.905181    -9.830806    -9.830806    11.549198    11.549198    11.865423    11.865423    12.779139    13.328197    13.598833    13.598833    14.770680    14.770680    14.839823    15.197134    22.060790    22.155263    22.155660    22.155660    23.757382    23.817017    23.817017    23.833258    25.234604    25.234604    25.265946    25.265946    35.420107    35.443502    35.443502    35.468161 
   148     1.699191  -12.989397   -12.967738   -12.967738   -12.939173    -9.873998    -9.873998    -9.840400    -9.840400    11.711999    11.712000    11.868959    11.868959    13.053817    13.342071    13.481412    13.481412    14.702020    14.702020    14.737589    14.939764    22.093608    22.135860    22.136108    22.136108    23.780480    23.807383    23.807383    23.814512    25.232583    25.232583    25.246667    25.246667    35.468285    35.478749    35.478749    35.489771 
   149     1.710062  -12.986570   -12.981041   -12.981041   -12.973788    -9.854636    -9.854636    -9.846043    -9.846043    11.826911    11.826912    11.869980    11.869980    13.268811    13.353675    13.392791    13.392791    14.662234    14.662234    14.672091    14.735035    22.113668    22.124417    22.124491    22.124491    23.794477    23.801346    23.801346    23.803131    25.231455    25.231455    25.235050    25.235050    35.497371    35.500036    35.500036    35.502838 
   150     1.720933  -12.985578   -12.985578   -12.985578   -12.985578    -9.847936    -9.847936    -9.847929    -9.847929    11.870129    11.870129    11.870132    11.870132    13.358299    13.358299    13.358299    13.358299    14.649006    14.649006    14.649006    14.649006    22.120561    22.120561    22.120561    22.120561    23.799238    23.799250    23.799250    23.799250    25.231083    25.231083    25.231095    25.231095    35.507289    35.507289    35.507289    35.507289 
