# k-axis, Phonon energy [meV], band-1, band-2, band-3, band-4, band-5, band-6, band-7
     1     0.000000    0.000000     0.000000     0.000000    20.249356    20.249356    20.249356    24.398446    24.398446    24.398446    33.731325    33.731325    33.731325 
     2     0.011647    0.439736     0.439736     0.873198    20.242450    20.242450    20.250596    24.397950    24.397950    24.404112    33.730222    33.734933    33.734933 
     3     0.023294    0.879304     0.879304     1.745438    20.221820    20.221820    20.254303    24.396388    24.396388    24.420948    33.726949    33.745707    33.745707 
     4     0.034940    1.318536     1.318536     2.615764    20.187676    20.187676    20.260427    24.393648    24.393648    24.448608    33.721717    33.763585    33.763585 
     5     0.046587    1.757263     1.757263     3.483219    20.140353    20.140353    20.268858    24.389507    24.389507    24.486459    33.714886    33.788431    33.788431 
     6     0.058234    2.195318     2.195318     4.346853    20.080322    20.080322    20.279458    24.383705    24.383705    24.533646    33.706939    33.820083    33.820083 
     7     0.069881    2.632533     2.632533     5.205711    20.008116    20.008116    20.292079    24.375894    24.375894    24.589090    33.698471    33.858306    33.858306 
     8     0.081528    3.068743     3.068743     6.058846    19.924404    19.924404    20.306498    24.365740    24.365740    24.651464    33.690251    33.902839    33.902839 
     9     0.093175    3.503783     3.503783     6.905313    19.829857    19.829857    20.322504    24.352858    24.352858    24.719306    33.683134    33.953398    33.953398 
    10     0.104821    3.937486     3.937486     7.744171    19.725218    19.725218    20.339824    24.336852    24.336852    24.790929    33.678126    34.009623    34.009623 
    11     0.116468    4.369689     4.369689     8.574484    19.611256    19.611256    20.358210    24.317350    24.317350    24.864511    33.676315    34.071179    34.071179 
    12     0.128115    4.800230     4.800230     9.395316    19.488763    19.488763    20.377353    24.294017    24.294017    24.938155    33.678845    34.137657    34.137657 
    13     0.139762    5.228947     5.228947    10.205736    19.358498    19.358498    20.396966    24.266494    24.266494    25.009853    33.686965    34.208648    34.208648 
    14     0.151409    5.655679     5.655679    11.004817    19.221227    19.221227    20.416741    24.234495    24.234495    25.077608    33.701905    34.283743    34.283743 
    15     0.163055    6.080268     6.080268    11.791630    19.077745    19.077745    20.436367    24.197747    24.197747    25.139462    33.724891    34.362495    34.362495 
    16     0.174702    6.502555     6.502555    12.565249    18.928758    18.928758    20.455535    24.155990    24.155990    25.193542    33.757051    34.444458    34.444458 
    17     0.186349    6.922385     6.922385    13.324726    18.774998    18.774998    20.473970    24.109039    24.109039    25.238150    33.799415    34.529199    34.529199 
    18     0.197996    7.339600     7.339600    14.069139    18.617172    18.617172    20.491365    24.056707    24.056707    25.271848    33.852851    34.616270    34.616270 
    19     0.209643    7.754048     7.754048    14.797521    18.455973    18.455973    20.507457    23.998833    23.998833    25.293482    33.917977    34.705225    34.705225 
    20     0.221289    8.165577     8.165577    15.508869    18.292034    18.292034    20.522025    23.935294    23.935294    25.302260    33.995155    34.795632    34.795632 
    21     0.232936    8.574033     8.574033    16.202178    18.126025    18.126025    20.534820    23.865964    23.865964    25.297784    34.084495    34.887079    34.887079 
    22     0.244583    8.979269     8.979269    16.876331    17.958540    17.958540    20.545668    23.790758    23.790758    25.280092    34.185799    34.979147    34.979147 
    23     0.256230    9.381133     9.381133    17.530164    17.790213    17.790213    20.554396    23.709613    23.709613    25.249717    34.298596    35.071450    35.071450 
    24     0.267877    9.779479     9.779479    17.621625    17.621625    18.162326    20.560893    23.622467    23.622467    25.207651    34.422154    35.163592    35.163592 
    25     0.279524   10.174157    10.174157    17.453346    17.453346    18.771279    20.565034    23.529259    23.529259    25.155443    34.555520    35.255213    35.255213 
    26     0.291170   10.565021    10.565021    17.285936    17.285936    19.355138    20.566794    23.429951    23.429951    25.095251    34.697588    35.345954    35.345954 
    27     0.302817   10.951923    10.951923    17.119952    17.119952    19.911535    20.566137    23.324519    23.324519    25.029963    34.847083    35.435505    35.435505 
    28     0.314464   11.334713    11.334713    16.955939    16.955939    20.437285    20.563075    23.212937    23.212937    24.963447    35.002678    35.523518    35.523518 
    29     0.326111   11.713239    11.713239    16.794442    16.794442    20.557669    20.928060    23.095180    23.095180    24.900887    35.162972    35.609734    35.609734 
    30     0.337758   12.087342    12.087342    16.635971    16.635971    20.550007    21.377735    22.971262    22.971262    24.849373    35.326551    35.693842    35.693842 
    31     0.349404   12.456853    12.456853    16.481058    16.481058    20.540213    21.777756    22.841158    22.841158    24.818478    35.492040    35.775607    35.775607 
    32     0.361051   12.821602    12.821602    16.330249    16.330249    20.528447    22.116978    22.704867    22.704867    24.820498    35.658061    35.854768    35.854768 
    33     0.372698   13.181355    13.181355    16.184089    16.184089    20.514884    22.383200    22.562426    22.562426    24.868739    35.823327    35.931090    35.931090 
    34     0.384345   13.535864    13.535864    16.043173    16.043173    20.499758    22.413823    22.413823    22.568079    24.972709    35.986571    36.004375    36.004375 
    35     0.395992   13.884731    13.884731    15.908184    15.908184    20.483306    22.259096    22.259096    22.673227    25.131973    36.074436    36.074436    36.146629 
    36     0.407638   14.227300    14.227300    15.780088    15.780088    20.465775    22.098282    22.098282    22.711090    25.335251    36.141063    36.141063    36.302410 
    37     0.419285   14.562059    14.562059    15.660658    15.660658    20.447463    21.931442    21.931442    22.699201    25.566176    36.204119    36.204119    36.452848 
    38     0.430932   14.884121    14.884121    15.555014    15.555014    20.428656    21.758626    21.758626    22.653874    25.809561    36.263443    36.263443    36.597012 
    39     0.442579   15.164167    15.164167    15.492690    15.492690    20.409650    21.579959    21.579959    22.587755    26.053876    36.318900    36.318900    36.733997 
    40     0.454226   15.246614    15.246614    15.629415    15.629415    20.390743    21.395539    21.395539    22.509846    26.291186    36.370351    36.370351    36.862998 
    41     0.465873   15.184017    15.184017    15.912709    15.912709    20.372257    21.205564    21.205564    22.426519    26.516185    36.417687    36.417687    36.983271 
    42     0.477519   15.106008    15.106008    16.212976    16.212976    20.354478    21.010308    21.010308    22.342312    26.725290    36.460819    36.460819    37.094134 
    43     0.489166   15.030938    15.030938    16.511669    16.511669    20.337679    20.810130    20.810130    22.260572    26.916095    36.499650    36.499650    37.194979 
    44     0.500813   14.962514    14.962514    16.804770    16.804770    20.322157    20.605625    20.605625    22.183803    27.086952    36.534104    36.534104    37.285262 
    45     0.512460   14.902024    14.902024    17.090246    17.090246    20.308147    20.397698    20.397698    22.113953    27.236683    36.564107    36.564107    37.364510 
    46     0.524107   14.850126    14.850126    17.366089    17.366089    20.187887    20.187887    20.295873    22.052546    27.364469    36.589610    36.589610    37.432290 
    47     0.535753   14.807217    14.807217    17.629274    17.629274    19.978968    19.978968    20.285533    22.000784    27.469728    36.610550    36.610550    37.488267 
    48     0.547400   14.773556    14.773556    17.874308    17.874308    19.776298    19.776298    20.277313    21.959561    27.552063    36.626891    36.626891    37.532143 
    49     0.559047   14.749355    14.749355    18.089810    18.089810    19.591158    19.591158    20.271325    21.929595    27.611152    36.638619    36.638619    37.563708 
    50     0.570694   14.734713    14.734713    18.251344    18.251344    19.447949    19.447949    20.267680    21.911333    27.646846    36.645686    36.645686    37.582801 
    51     0.582341   14.729741    14.729741    18.316198    18.316198    19.389331    19.389331    20.266428    21.905084    27.659021    36.648091    36.648091    37.589310 
    52     0.582341   14.729729    14.729741    18.316198    18.316210    19.389344    19.389344    20.266428    21.905084    27.659008    36.648091    36.648091    37.589310 
    53     0.598812   14.724299    14.761369    18.311338    18.315776    19.394142    19.400279    20.262324    21.902146    27.651061    36.642339    36.650695    37.589422 
    54     0.615283   14.708343    14.853114    18.297142    18.314536    19.408276    19.432303    20.249926    21.893864    27.628063    36.625453    36.658084    37.589695 
    55     0.631754   14.681811    15.001568    18.273871    18.312602    19.431832    19.485168    20.228130    21.881280    27.591018    36.597532    36.669490    37.590029 
    56     0.648225   14.644604    15.201275    18.241934    18.310098    19.465083    19.558440    20.195164    21.866067    27.541549    36.558689    36.683773    37.590265 
    57     0.664696   14.596599    15.444747    18.201901    18.307234    19.508724    19.651537    20.148709    21.850434    27.481779    36.509122    36.699382    37.590141 
    58     0.681167   14.537672    15.722536    18.154491    18.304283    19.564094    19.763664    20.086074    21.836945    27.414222    36.449041    36.714483    37.589347 
    59     0.697638   14.467697    16.023274    18.100534    18.301518    19.633696    19.893918    20.004508    21.828241    27.341595    36.378782    36.727104    37.587500 
    60     0.714109   14.386552    16.333609    18.041012    18.299312    19.721561    19.901530    20.041169    21.826716    27.266711    36.298666    36.735162    37.584140 
    61     0.730580   14.294150    16.638252    17.976926    18.298035    19.775256    19.833651    20.204178    21.834229    27.192186    36.209115    36.736625    37.578747 
    62     0.747052   14.190366    16.920629    17.909382    18.298084    19.624608    19.977505    20.381556    21.851946    27.120278    36.110613    36.729559    37.570738 
    63     0.763523   14.075139    17.164684    17.839420    18.299882    19.449350    20.160822    20.571791    21.880313    27.052672    36.003718    36.712301    37.559468 
    64     0.779994   13.948395    17.357969    17.767958    18.303886    19.250077    20.388598    20.773283    21.919230    26.990198    35.889049    36.683450    37.544281 
    65     0.796465   13.810045    17.494619    17.695529    18.310507    19.028240    20.660374    20.984346    21.968190    26.932758    35.767313    36.642053    37.524444 
    66     0.812936   13.660042    17.576111    17.621823    18.320190    18.786454    20.969531    21.203208    22.026436    26.879149    35.639266    36.587577    37.499251 
    67     0.829407   13.498298    17.544583    17.609313    18.333332    18.529394    21.305318    21.428059    22.093149    26.827003    35.505789    36.520057    37.467959 
    68     0.845878   13.324713    17.456880    17.603523    18.266507    18.350317    21.655748    21.657050    22.167413    26.772898    35.367824    36.440090    37.429860 
    69     0.862349   13.139202    17.340748    17.568338    18.018113    18.371493    21.888322    22.009574    22.248397    26.712408    35.226400    36.348903    37.384285 
    70     0.878820   12.941615    17.162688    17.512659    17.820079    18.397157    22.119991    22.335233    22.356966    26.640426    35.082633    36.248268    37.330626 
    71     0.895291   12.731841    16.900358    17.444482    17.696893    18.427557    22.350172    22.427114    22.689555    26.551507    34.937713    36.140517    37.268351 
    72     0.911762   12.509706    16.570349    17.370850    17.633948    18.462891    22.523261    22.576994    22.999765    26.440458    34.792917    36.028365    37.197013 
    73     0.928233   12.275061    16.196809    17.297975    17.608879    18.503259    22.622903    22.798608    23.280097    26.303262    34.649571    35.914750    37.116277 
    74     0.944705   12.027710    15.793291    17.231311    17.609636    18.548710    22.725298    23.013205    23.521585    26.138641    34.509077    35.802585    37.025958 
    75     0.961176   11.767467    15.366478    17.175545    17.630836    18.599244    22.829690    23.219036    23.711398    25.950725    34.372835    35.694450    36.925992 
    76     0.977647   11.494141    14.920001    17.134644    17.669828    18.654725    22.935333    23.414454    23.828423    25.753572    34.242297    35.592389    36.816456 
    77     0.994118   11.207539    14.456142    17.111856    17.725086    18.715004    23.041509    23.597894    23.838912    25.575772    34.118850    35.497668    36.697621 
    78     1.010589   10.907479    13.976551    17.109624    17.795383    18.779821    23.147475    23.703773    23.767970    25.453168    34.003821    35.410696    36.569909 
    79     1.027060   10.593793    13.482552    17.129684    17.879602    18.848828    23.252499    23.407536    23.923441    25.399807    33.898438    35.331039    36.433879 
    80     1.043531   10.266340    12.975263    17.172991    17.976567    18.921642    22.969936    23.355848    24.063315    25.396262    33.803779    35.257569    36.290310 
    81     1.060002    9.925004    12.455688    17.239766    18.084975    18.997790    22.420518    23.456805    24.186874    25.414747    33.720688    35.188636    36.140083 
    82     1.076473    9.569714    11.924783    17.329515    18.203401    19.076753    21.781414    23.554687    24.293683    25.436109    33.649796    35.122344    35.984278 
    83     1.092944    9.200439    11.383403    17.441023    18.330319    19.157960    21.066905    23.648825    24.383655    25.450007    33.591414    35.056758    35.824071 
    84     1.109415    8.817208    10.832381    17.572219    18.464081    19.240766    20.286947    23.738599    24.457014    25.451457    33.545579    34.990094    35.660764 
    85     1.125886    8.420108    10.272502    17.719346    18.603013    19.324515    19.450218    23.823414    24.514355    25.438402    33.511980    34.920876    35.495784 
    86     1.142357    8.009296     9.704517    17.867440    18.574857    18.745367    19.408536    23.902786    24.556582    25.410457    33.490036    34.848001    35.330605 
    87     1.158829    7.585000     9.129145    17.556349    18.123111    18.889382    19.492098    23.976257    24.584887    25.368230    33.478865    34.770823    35.166741 
    88     1.175300    7.147528     8.547066    16.596570    18.285810    19.033323    19.574496    24.043503    24.600682    25.313009    33.477377    34.689158    35.005728 
    89     1.191771    6.697266     7.958931    15.573029    18.478835    19.175478    19.655021    24.104291    24.605579    25.246481    33.484295    34.603252    34.849104 
    90     1.208242    6.234685     7.365358    14.509528    18.678864    19.314200    19.732930    24.158507    24.601289    25.170680    33.498193    34.513788    34.698332 
    91     1.224713    5.760340     6.766930    13.411735    18.880344    19.447924    19.807553    24.206165    24.589573    25.087837    33.517621    34.421807    34.554813 
    92     1.241184    5.274868     6.164199    12.283623    19.079319    19.575165    19.878209    24.247388    24.572191    25.000356    33.541078    34.328711    34.419861 
    93     1.257655    4.778985     5.557684    11.128582    19.272245    19.694545    19.944241    24.282438    24.550842    24.910756    33.567139    34.236098    34.294641 
    94     1.274126    4.273489     4.947871     9.949779    19.455747    19.804813    20.005078    24.311697    24.527162    24.821577    33.594414    34.145815    34.180207 
    95     1.290597    3.759247     4.335219     8.750198    19.626629    19.904815    20.060150    24.335613    24.502626    24.735349    33.621628    34.059823    34.077440 
    96     1.307068    3.237196     3.720154     7.532697    19.781864    19.993560    20.108936    24.354730    24.478586    24.654551    33.647614    33.980116    33.987096 
    97     1.323539    2.708331     3.103077     6.300025    19.918652    20.070155    20.151015    24.369608    24.456220    24.581527    33.671356    33.908654    33.909770 
    98     1.340010    2.173703     2.484363     5.054842    20.034424    20.133844    20.185977    24.380828    24.436532    24.518458    33.691987    33.845945    33.847284 
    99     1.356482    1.634410     1.864369     3.799738    20.126988    20.184018    20.213513    24.388924    24.420353    24.467230    33.708773    33.795969    33.797667 
   100     1.372953    1.091584     1.243430     2.537242    20.194495    20.220196    20.233362    24.394342    24.408339    24.429428    33.721171    33.760114    33.761167 
   101     1.389424    0.546387     0.621870     1.269843    20.235569    20.242041    20.245339    24.397441    24.400950    24.406256    33.728771    33.738529    33.738851 
   102     1.405895    0.000000     0.000000     0.000000    20.249356    20.249356    20.249356    24.398446    24.398446    24.398446    33.731325    33.731325    33.731325 
   103     1.405895    0.000000     0.000000     0.000000    20.249356    20.249356    20.249356    24.398446    24.398446    24.398446    33.731325    33.731325    33.731325 
   104     1.415981    0.350736     0.350736     0.784816    20.245388    20.246628    20.246628    24.398954    24.398954    24.400950    33.731586    33.731586    33.735380 
   105     1.426068    0.701291     0.701291     1.569088    20.233536    20.238446    20.238446    24.400454    24.400454    24.408401    33.732367    33.732367    33.747468 
   106     1.436154    1.051484     1.051484     2.352269    20.213935    20.224820    20.224820    24.402934    24.402934    24.420700    33.733656    33.733656    33.767528 
   107     1.446241    1.401134     1.401134     3.133814    20.186796    20.205777    20.205777    24.406405    24.406405    24.437698    33.735442    33.735442    33.795386 
   108     1.456327    1.750062     1.750062     3.913173    20.152391    20.181340    20.181340    24.410831    24.410831    24.459159    33.737735    33.737735    33.830819 
   109     1.466413    2.098091     2.098091     4.689798    20.111093    20.151548    20.151548    24.416187    24.416187    24.484785    33.740512    33.740512    33.873568 
   110     1.476500    2.445046     2.445046     5.463133    20.063349    20.116449    20.116449    24.422461    24.422461    24.514255    33.743748    33.743748    33.923284 
   111     1.486586    2.790750     2.790750     6.232622    20.009641    20.076094    20.076094    24.429614    24.429614    24.547147    33.747443    33.747443    33.979608 
   112     1.496673    3.135035     3.135035     6.997704    19.950514    20.030531    20.030531    24.437599    24.437599    24.583052    33.751571    33.751571    34.042131 
   113     1.506759    3.477732     3.477732     7.757813    19.886590    19.979823    19.979823    24.446389    24.446389    24.621473    33.756109    33.756109    34.110382 
   114     1.516846    3.818675     3.818675     8.512378    19.818513    19.924057    19.924057    24.455948    24.455948    24.661903    33.761031    33.761031    34.183902 
   115     1.526932    4.157704     4.157704     9.260821    19.746976    19.863295    19.863295    24.466201    24.466201    24.703784    33.766325    33.766325    34.262183 
   116     1.537018    4.494662     4.494662    10.002558    19.672688    19.797622    19.797622    24.477123    24.477123    24.746557    33.771941    33.771941    34.344716 
   117     1.547105    4.829394     4.829394    10.736997    19.596428    19.727115    19.727115    24.488641    24.488641    24.789615    33.777880    33.777880    34.430945 
   118     1.557191    5.161752     5.161752    11.463534    19.518965    19.651871    19.651871    24.500717    24.500717    24.832351    33.784091    33.784091    34.520359 
   119     1.567278    5.491595     5.491595    12.181561    19.441093    19.571979    19.571979    24.513301    24.513301    24.874145    33.790551    33.790551    34.612402 
   120     1.577364    5.818781     5.818781    12.890449    19.363643    19.487524    19.487524    24.526306    24.526306    24.914376    33.797221    33.797221    34.706540 
   121     1.587451    6.143177     6.143177    13.589572    19.287457    19.398605    19.398605    24.539696    24.539696    24.952413    33.804089    33.804089    34.802227 
   122     1.597537    6.464658     6.464658    14.278268    19.213342    19.305310    19.305310    24.553408    24.553408    24.987661    33.811107    33.811107    34.898944 
   123     1.607624    6.783102     6.783102    14.955869    19.142152    19.207750    19.207750    24.567368    24.567368    25.019524    33.818248    33.818248    34.996157 
   124     1.617710    7.098393     7.098393    15.621666    19.074720    19.106000    19.106000    24.581539    24.581539    25.047431    33.825476    33.825476    35.093370 
   125     1.627796    7.410422     7.410422    16.274929    19.000171    19.000171    19.011874    24.595834    24.595834    25.070876    33.832766    33.832766    35.190099 
   126     1.637883    7.719089     7.719089    16.914839    18.890337    18.890337    18.954472    24.610216    24.610216    25.089386    33.840081    33.840081    35.285849 
   127     1.647969    8.024297     8.024297    17.540418    18.776597    18.776597    18.903466    24.624622    24.624622    25.102553    33.847408    33.847408    35.380173 
   128     1.658056    8.325959     8.325959    18.149829    18.659040    18.659040    18.860557    24.638979    24.638979    25.110054    33.854685    33.854685    35.472624 
   129     1.668142    8.623994     8.623994    18.537738    18.537738    18.718761    18.849832    24.653237    24.653237    25.111665    33.861914    33.861914    35.562795 
   130     1.678229    8.918328     8.918328    18.412778    18.412778    18.782982    19.335127    24.667346    24.667346    25.107339    33.869042    33.869042    35.650275 
   131     1.688315    9.208893     9.208893    18.284223    18.284223    18.764646    19.893732    24.681257    24.681257    25.097135    33.876060    33.876060    35.734718 
   132     1.698401    9.495632     9.495632    18.152160    18.152160    18.753116    20.435388    24.694907    24.694907    25.081390    33.882941    33.882941    35.815776 
   133     1.708488    9.778492     9.778492    18.016637    18.016637    18.750289    20.957034    24.708259    24.708259    25.060796    33.889648    33.889648    35.893140 
   134     1.718574   10.057429    10.057429    17.877718    17.877718    18.756661    21.456425    24.721252    24.721252    25.036496    33.896169    33.896169    35.966524 
   135     1.728661   10.332406    10.332406    17.735451    17.735451    18.772382    21.930847    24.733849    24.733849    25.010448    33.902480    33.902480    36.035704 
   136     1.738747   10.603392    10.603392    17.589873    17.589873    18.797451    22.376394    24.746011    24.746011    24.985925    33.908555    33.908555    36.100484 
   137     1.748834   10.870364    10.870364    17.441048    17.441048    18.831707    22.787065    24.757690    24.757690    24.968382    33.914369    33.914369    36.160689 
   138     1.758920   11.133305    11.133305    17.288986    17.288986    18.874777    23.153191    24.768848    24.768848    24.967117    33.919924    33.919924    36.216219 
   139     1.769007   11.392204    11.392204    17.133738    17.133738    18.926179    23.459657    24.779449    24.779449    24.996972    33.925181    33.925181    36.267026 
   140     1.779093   11.647056    11.647056    16.975304    16.975304    18.985206    23.687495    24.789466    24.789466    25.076790    33.930152    33.930152    36.313097 
   141     1.789179   11.897861    11.897861    16.813709    16.813709    19.050978    23.825323    24.798852    24.798852    25.217966    33.934789    33.934789    36.354469 
   142     1.799266   12.144622    12.144622    16.648964    16.648964    19.122402    23.882838    24.807605    24.807605    25.410990    33.939116    33.939116    36.391242 
   143     1.809352   12.387346    12.387346    16.481083    16.481083    19.198167    23.883941    24.815676    24.815676    25.632381    33.943083    33.943083    36.423551 
   144     1.819439   12.626036    12.626036    16.310065    16.310065    19.276758    23.850739    24.823052    24.823052    25.860616    33.946716    33.946716    36.451608 
   145     1.829525   12.860706    12.860706    16.135923    16.135923    19.356378    23.798209    24.829710    24.829710    26.081549    33.949989    33.949989    36.475623 
   146     1.839612   13.091333    13.091333    15.958681    15.958681    19.435055    23.735946    24.835636    24.835636    26.286661    33.952890    33.952890    36.495881 
   147     1.849698   13.317894    13.317894    15.778389    15.778389    19.510547    23.670472    24.840794    24.840794    26.470784    33.955419    33.955419    36.512631 
   148     1.859784   13.540315    13.540315    15.595109    15.595109    19.580496    23.606672    24.845195    24.845195    26.630582    33.957564    33.957564    36.526194 
   149     1.869871   13.758408    13.758408    15.409053    15.409053    19.642399    23.548501    24.848815    24.848815    26.763823    33.959337    33.959337    36.536832 
   150     1.879957   13.971678    13.971678    15.220727    15.220727    19.693814    23.499318    24.851642    24.851642    26.868970    33.960713    33.960713    36.544816 
   151     1.890044   14.178663    14.178663    15.031596    15.031596    19.732496    23.461926    24.853663    24.853663    26.944933    33.961705    33.961705    36.550345 
   152     1.900130   14.372778    14.372778    14.848217    14.848217    19.756635    23.438444    24.854890    24.854890    26.990992    33.962300    33.962300    36.553619 
   153     1.910217   14.494837    14.494837    14.729841    14.729841    19.765003    23.430286    24.855312    24.855312    27.006725    33.962498    33.962498    36.554710 
