# Temperature [K], Thermal Conductivity (xx, xy, xz, yx, yy, yz, zx, zy, zz) [W/mK]
      0.00         0.0000         0.0000         0.0000         0.0000         0.0000         0.0000         0.0000         0.0000         0.0000
     10.00      1035.6171        -0.0040         0.0000        -0.0040      1035.6199         0.0000         0.0000         0.0000         1.2063
     20.00       447.1491        -0.0009        -0.0000        -0.0009       447.1484        -0.0000        -0.0000        -0.0000        11.4627
     30.00       262.4717         0.0000        -0.0000         0.0000       262.4707        -0.0000        -0.0000        -0.0000        16.4471
     40.00       185.4621         0.0009        -0.0000         0.0009       185.4622        -0.0000        -0.0000        -0.0000        16.2365
     50.00       146.7614         0.0019        -0.0000         0.0019       146.7627        -0.0000        -0.0000        -0.0000        14.7305
     60.00       125.6428         0.0028        -0.0000         0.0028       125.6451        -0.0000        -0.0000        -0.0000        13.1273
     70.00       113.1755         0.0034        -0.0000         0.0034       113.1786        -0.0000        -0.0000        -0.0000        11.6889
     80.00       105.1591         0.0037        -0.0000         0.0037       105.1626        -0.0000        -0.0000        -0.0000        10.4543
     90.00        99.5439         0.0039        -0.0000         0.0039        99.5476        -0.0000        -0.0000        -0.0000         9.4077
    100.00        95.3250         0.0040        -0.0000         0.0040        95.3288        -0.0000        -0.0000        -0.0000         8.5216
    110.00        92.0049         0.0040        -0.0000         0.0040        92.0088        -0.0000        -0.0000        -0.0000         7.7686
    120.00        89.3267         0.0040        -0.0000         0.0040        89.3306        -0.0000        -0.0000        -0.0000         7.1249
    130.00        87.1440         0.0039        -0.0000         0.0039        87.1478        -0.0000        -0.0000        -0.0000         6.5707
    140.00        85.3608         0.0038        -0.0000         0.0038        85.3645        -0.0000        -0.0000        -0.0000         6.0904
    150.00        83.9062         0.0036        -0.0000         0.0036        83.9097        -0.0000        -0.0000        -0.0000         5.6711
    160.00        82.7225         0.0034        -0.0000         0.0034        82.7258        -0.0000        -0.0000        -0.0000         5.3027
    170.00        81.7619         0.0030        -0.0000         0.0030        81.7649        -0.0000        -0.0000        -0.0000         4.9769
    180.00        80.9838         0.0026        -0.0000         0.0026        80.9863        -0.0000        -0.0000        -0.0000         4.6873
    190.00        80.3541         0.0020        -0.0000         0.0020        80.3559        -0.0000        -0.0000        -0.0000         4.4284
    200.00        79.8443         0.0013        -0.0000         0.0013        79.8454        -0.0000        -0.0000        -0.0000         4.1957
    210.00        79.4307         0.0005        -0.0000         0.0005        79.4309        -0.0000        -0.0000        -0.0000         3.9856
    220.00        79.0937        -0.0004        -0.0000        -0.0004        79.0928        -0.0000        -0.0000        -0.0000         3.7951
    230.00        78.8167        -0.0015        -0.0000        -0.0015        78.8146        -0.0000        -0.0000        -0.0000         3.6217
    240.00        78.5861        -0.0026        -0.0000        -0.0026        78.5828        -0.0000        -0.0000        -0.0000         3.4632
    250.00        78.3905        -0.0038        -0.0000        -0.0038        78.3857        -0.0000        -0.0000        -0.0000         3.3178
    260.00        78.2200        -0.0051        -0.0000        -0.0051        78.2138        -0.0000        -0.0000        -0.0000         3.1841
    270.00        78.0666        -0.0065        -0.0000        -0.0065        78.0588        -0.0000        -0.0000        -0.0000         3.0606
    280.00        77.9232        -0.0079        -0.0000        -0.0079        77.9138        -0.0000        -0.0000        -0.0000         2.9463
    290.00        77.7840        -0.0093        -0.0000        -0.0093        77.7730        -0.0000        -0.0000        -0.0000         2.8402
    300.00        77.6442        -0.0107        -0.0000        -0.0107        77.6316        -0.0000        -0.0000        -0.0000         2.7415
    310.00        77.4996        -0.0122        -0.0000        -0.0122        77.4853        -0.0000        -0.0000        -0.0000         2.6494
    320.00        77.3469        -0.0136        -0.0000        -0.0136        77.3309        -0.0000        -0.0000        -0.0000         2.5633
    330.00        77.1833        -0.0150        -0.0000        -0.0150        77.1657        -0.0000        -0.0000        -0.0000         2.4826
    340.00        77.0066        -0.0164        -0.0000        -0.0164        76.9875        -0.0000        -0.0000        -0.0000         2.4068
    350.00        76.8153        -0.0178        -0.0000        -0.0178        76.7946        -0.0000        -0.0000        -0.0000         2.3356
    360.00        76.6081        -0.0191        -0.0000        -0.0191        76.5859        -0.0000        -0.0000        -0.0000         2.2685
    370.00        76.3841        -0.0203        -0.0000        -0.0203        76.3604        -0.0000        -0.0000        -0.0000         2.2051
    380.00        76.1428        -0.0216        -0.0000        -0.0216        76.1178        -0.0000        -0.0000        -0.0000         2.1452
    390.00        75.8841        -0.0227        -0.0000        -0.0227        75.8577        -0.0000        -0.0000        -0.0000         2.0885
    400.00        75.6079        -0.0238        -0.0000        -0.0238        75.5803        -0.0000        -0.0000        -0.0000         2.0347
    410.00        75.3146        -0.0249        -0.0000        -0.0249        75.2857        -0.0000        -0.0000        -0.0000         1.9836
    420.00        75.0044        -0.0259        -0.0000        -0.0259        74.9744        -0.0000        -0.0000        -0.0000         1.9351
    430.00        74.6780        -0.0269        -0.0000        -0.0269        74.6468        -0.0000        -0.0000        -0.0000         1.8889
    440.00        74.3359        -0.0278        -0.0000        -0.0278        74.3038        -0.0000        -0.0000        -0.0000         1.8448
    450.00        73.9790        -0.0286        -0.0000        -0.0286        73.9459        -0.0000        -0.0000        -0.0000         1.8028
    460.00        73.6080        -0.0294        -0.0000        -0.0294        73.5739        -0.0000        -0.0000        -0.0000         1.7626
    470.00        73.2237        -0.0301        -0.0000        -0.0301        73.1889        -0.0000        -0.0000        -0.0000         1.7243
    480.00        72.8271        -0.0308        -0.0000        -0.0308        72.7915        -0.0000        -0.0000        -0.0000         1.6875
    490.00        72.4191        -0.0315        -0.0000        -0.0315        72.3827        -0.0000        -0.0000        -0.0000         1.6523
    500.00        72.0004        -0.0321        -0.0000        -0.0321        71.9633        -0.0000        -0.0000        -0.0000         1.6186
    510.00        71.5721        -0.0326        -0.0000        -0.0326        71.5344        -0.0000        -0.0000        -0.0000         1.5862
    520.00        71.1349        -0.0331        -0.0000        -0.0331        71.0966        -0.0000        -0.0000        -0.0000         1.5551
    530.00        70.6898        -0.0336        -0.0000        -0.0336        70.6510        -0.0000        -0.0000        -0.0000         1.5252
    540.00        70.2376        -0.0340        -0.0000        -0.0340        70.1983        -0.0000        -0.0000        -0.0000         1.4964
    550.00        69.7790        -0.0344        -0.0000        -0.0344        69.7393        -0.0000        -0.0000        -0.0000         1.4687
    560.00        69.3149        -0.0348        -0.0000        -0.0348        69.2747        -0.0000        -0.0000        -0.0000         1.4420
    570.00        68.8460        -0.0351        -0.0000        -0.0351        68.8054        -0.0000        -0.0000        -0.0000         1.4163
    580.00        68.3730        -0.0354        -0.0000        -0.0354        68.3321        -0.0000        -0.0000        -0.0000         1.3915
    590.00        67.8965        -0.0356        -0.0000        -0.0356        67.8553        -0.0000        -0.0000        -0.0000         1.3675
    600.00        67.4172        -0.0359        -0.0000        -0.0359        67.3757        -0.0000        -0.0000        -0.0000         1.3444
    610.00        66.9356        -0.0361        -0.0000        -0.0361        66.8939        -0.0000        -0.0000        -0.0000         1.3220
    620.00        66.4524        -0.0362        -0.0000        -0.0362        66.4105        -0.0000        -0.0000        -0.0000         1.3004
    630.00        65.9681        -0.0364        -0.0000        -0.0364        65.9260        -0.0000        -0.0000        -0.0000         1.2794
    640.00        65.4831        -0.0365        -0.0000        -0.0365        65.4409        -0.0000        -0.0000        -0.0000         1.2592
    650.00        64.9980        -0.0366        -0.0000        -0.0366        64.9556        -0.0000        -0.0000        -0.0000         1.2395
    660.00        64.5130        -0.0367        -0.0000        -0.0367        64.4706        -0.0000        -0.0000        -0.0000         1.2205
    670.00        64.0288        -0.0368        -0.0000        -0.0368        63.9862        -0.0000        -0.0000        -0.0000         1.2020
    680.00        63.5455        -0.0368        -0.0000        -0.0368        63.5029        -0.0000        -0.0000        -0.0000         1.1842
    690.00        63.0635        -0.0369        -0.0000        -0.0369        63.0209        -0.0000        -0.0000        -0.0000         1.1668
    700.00        62.5833        -0.0369        -0.0000        -0.0369        62.5406        -0.0000        -0.0000        -0.0000         1.1499
    710.00        62.1049        -0.0369        -0.0000        -0.0369        62.0623        -0.0000        -0.0000        -0.0000         1.1335
    720.00        61.6288        -0.0369        -0.0000        -0.0369        61.5861        -0.0000        -0.0000        -0.0000         1.1176
    730.00        61.1551        -0.0369        -0.0000        -0.0369        61.1125        -0.0000        -0.0000        -0.0000         1.1021
    740.00        60.6841        -0.0368        -0.0000        -0.0368        60.6415        -0.0000        -0.0000        -0.0000         1.0871
    750.00        60.2160        -0.0368        -0.0000        -0.0368        60.1734        -0.0000        -0.0000        -0.0000         1.0724
    760.00        59.7509        -0.0367        -0.0000        -0.0367        59.7084        -0.0000        -0.0000        -0.0000         1.0582
    770.00        59.2890        -0.0367        -0.0000        -0.0367        59.2466        -0.0000        -0.0000        -0.0000         1.0443
    780.00        58.8305        -0.0366        -0.0000        -0.0366        58.7882        -0.0000        -0.0000        -0.0000         1.0308
    790.00        58.3756        -0.0365        -0.0000        -0.0365        58.3333        -0.0000        -0.0000        -0.0000         1.0176
    800.00        57.9242        -0.0364        -0.0000        -0.0364        57.8821        -0.0000        -0.0000        -0.0000         1.0048
    810.00        57.4766        -0.0363        -0.0000        -0.0363        57.4346        -0.0000        -0.0000        -0.0000         0.9923
    820.00        57.0328        -0.0362        -0.0000        -0.0362        56.9909        -0.0000        -0.0000        -0.0000         0.9801
    830.00        56.5929        -0.0361        -0.0000        -0.0361        56.5511        -0.0000        -0.0000        -0.0000         0.9682
    840.00        56.1569        -0.0360        -0.0000        -0.0360        56.1153        -0.0000        -0.0000        -0.0000         0.9565
    850.00        55.7250        -0.0359        -0.0000        -0.0359        55.6835        -0.0000        -0.0000        -0.0000         0.9452
    860.00        55.2972        -0.0358        -0.0000        -0.0358        55.2559        -0.0000        -0.0000        -0.0000         0.9341
    870.00        54.8735        -0.0356        -0.0000        -0.0356        54.8323        -0.0000        -0.0000        -0.0000         0.9233
    880.00        54.4540        -0.0355        -0.0000        -0.0355        54.4130        -0.0000        -0.0000        -0.0000         0.9127
    890.00        54.0387        -0.0354        -0.0000        -0.0354        53.9978        -0.0000        -0.0000        -0.0000         0.9024
    900.00        53.6276        -0.0352        -0.0000        -0.0352        53.5869        -0.0000        -0.0000        -0.0000         0.8923
    910.00        53.2207        -0.0351        -0.0000        -0.0351        53.1802        -0.0000        -0.0000        -0.0000         0.8824
    920.00        52.8181        -0.0349        -0.0000        -0.0349        52.7777        -0.0000        -0.0000        -0.0000         0.8728
    930.00        52.4197        -0.0348        -0.0000        -0.0348        52.3795        -0.0000        -0.0000        -0.0000         0.8633
    940.00        52.0256        -0.0346        -0.0000        -0.0346        51.9855        -0.0000        -0.0000        -0.0000         0.8541
    950.00        51.6357        -0.0345        -0.0000        -0.0345        51.5958        -0.0000        -0.0000        -0.0000         0.8450
    960.00        51.2500        -0.0343        -0.0000        -0.0343        51.2103        -0.0000        -0.0000        -0.0000         0.8362
    970.00        50.8685        -0.0342        -0.0000        -0.0342        50.8290        -0.0000        -0.0000        -0.0000         0.8275
    980.00        50.4913        -0.0340        -0.0000        -0.0340        50.4519        -0.0000        -0.0000        -0.0000         0.8190
    990.00        50.1182        -0.0339        -0.0000        -0.0339        50.0791        -0.0000        -0.0000        -0.0000         0.8107
   1000.00        49.7493        -0.0337        -0.0000        -0.0337        49.7103        -0.0000        -0.0000        -0.0000         0.8025
