# k-axis, Phonon energy [meV], band-1, band-2, band-3, band-4, band-5, band-6, band-7
     1     0.000000    0.000000     0.000000     0.000000 
     2     0.011920    0.387211     0.387211     0.453100 
     3     0.023840    0.773989     0.773989     0.906341 
     4     0.035760    1.159899     1.159899     1.359860 
     5     0.047680    1.544511     1.544511     1.813775 
     6     0.059600    1.927394     1.927394     2.268193 
     7     0.071520    2.308125     2.308125     2.723188 
     8     0.083441    2.686282     2.686282     3.178808 
     9     0.095361    3.061449     3.061449     3.635060 
    10     0.107281    3.433217     3.433217     4.091915 
    11     0.119201    3.801182     3.801182     4.549297 
    12     0.131121    4.164948     4.164948     5.007082 
    13     0.143041    4.524127     4.524127     5.465095 
    14     0.154961    4.878339     4.878339     5.923110 
    15     0.166881    5.227215     5.227215     6.380844 
    16     0.178801    5.570395     5.570395     6.837964 
    17     0.190721    5.907529     5.907529     7.294079 
    18     0.202641    6.238278     6.238278     7.748746 
    19     0.214561    6.562315     6.562315     8.201469 
    20     0.226482    6.879323     6.879323     8.651701 
    21     0.238402    7.188998     7.188998     9.098851 
    22     0.250322    7.491048     7.491048     9.542278 
    23     0.262242    7.785193     7.785193     9.981301 
    24     0.274162    8.071165     8.071165    10.415205 
    25     0.286082    8.348709     8.348709    10.843235 
    26     0.298002    8.617582     8.617582    11.264612 
    27     0.309922    8.877556     8.877556    11.678528 
    28     0.321842    9.128411     9.128411    12.084157 
    29     0.333762    9.369942     9.369942    12.480657 
    30     0.345682    9.601956     9.601956    12.867178 
    31     0.357602    9.824272     9.824272    13.242862 
    32     0.369523   10.036719    10.036719    13.606842 
    33     0.381443   10.239140    10.239140    13.958276 
    34     0.393363   10.431387    10.431387    14.296332 
    35     0.405283   10.613323    10.613323    14.620156 
    36     0.417203   10.784823    10.784823    14.928940 
    37     0.429123   10.945771    10.945771    15.221917 
    38     0.441043   11.096060    11.096060    15.498318 
    39     0.452963   11.235593    11.235593    15.757424 
    40     0.464883   11.364285    11.364285    15.998540 
    41     0.476803   11.482052    11.482052    16.221022 
    42     0.488723   11.588826    11.588826    16.424263 
    43     0.500643   11.684542    11.684542    16.607704 
    44     0.512564   11.769147    11.769147    16.770837 
    45     0.524484   11.842592    11.842592    16.913215 
    46     0.536404   11.904834    11.904834    17.034430 
    47     0.548324   11.955840    11.955840    17.134148 
    48     0.560244   11.995582    11.995582    17.212081 
    49     0.572164   12.024038    12.024038    17.268021 
    50     0.584084   12.041193    12.041193    17.301793 
    51     0.596004   12.047039    12.047039    17.313311 
    52     0.596004   12.047037    12.047044    17.313311 
    53     0.612862   12.037172    12.062790    17.304620 
    54     0.629719   12.008252    12.108577    17.279105 
    55     0.646577   11.960379    12.183141    17.236803 
    56     0.663434   11.893730    12.284450    17.177739 
    57     0.680292   11.808548    12.409803    17.101962 
    58     0.697149   11.705145    12.555938    17.009548 
    59     0.714007   11.583896    12.719145    16.900569 
    60     0.730864   11.445243    12.895445    16.775114 
    61     0.747722   11.289688    13.080646    16.633306 
    62     0.764579   11.117795    13.270484    16.475243 
    63     0.781437   10.930182    13.460707    16.301089 
    64     0.798295   10.727523    13.647160    16.110978 
    65     0.815152   10.510545    13.825816    15.905097 
    66     0.832010   10.280017    13.992854    15.683606 
    67     0.848867   10.036758    14.144667    15.446705 
    68     0.865725    9.781620    14.277896    15.194617 
    69     0.882582    9.515496    14.389441    14.927552 
    70     0.899440    9.239308    14.476438    14.645757 
    71     0.916297    8.954002    14.349482    14.536345 
    72     0.933155    8.660544    14.038999    14.566844 
    73     0.950012    8.359921    13.714606    14.565902 
    74     0.966870    8.053122    13.376574    14.531745 
    75     0.983728    7.741148    13.025240    14.462862 
    76     1.000585    7.424991    12.660912    14.358012 
    77     1.017443    7.105640    12.283937    14.216167 
    78     1.034300    6.784065    11.894673    14.036582 
    79     1.051158    6.461220    11.493485    13.818724 
    80     1.068015    6.138024    11.080756    13.562296 
    81     1.084873    5.815365    10.656879    13.267224 
    82     1.101730    5.494088    10.222264    12.933668 
    83     1.118588    5.174987     9.777329    12.561976 
    84     1.135445    4.858801     9.322510    12.152713 
    85     1.152303    4.546200     8.858248    11.706637 
    86     1.169160    4.237788     8.385003    11.224693 
    87     1.186018    3.934084     7.903239    10.708009 
    88     1.202876    3.635524     7.413435    10.157881 
    89     1.219733    3.342451     6.916078     9.575771 
    90     1.236591    3.055113     6.411667     8.963294 
    91     1.253448    2.773648     5.900708     8.322212 
    92     1.270306    2.498094     5.383715     7.654417 
    93     1.287163    2.228377     4.861211     6.961932 
    94     1.304021    1.964313     4.333728     6.246890 
    95     1.320878    1.705609     3.801800     5.511532 
    96     1.337736    1.451868     3.265970     4.758189 
    97     1.354593    1.202591     2.726788     3.989276 
    98     1.371451    0.957190     2.184802     3.207280 
    99     1.388309    0.714993     1.640570     2.414744 
   100     1.405166    0.475263     1.094652     1.614263 
   101     1.422024    0.237208     0.547608     0.808464 
   102     1.438881    0.000000     0.000000     0.000000 
   103     1.438881    0.000000     0.000000     0.000000 
   104     1.449204    0.227003     0.227003     0.525125 
   105     1.459527    0.453782     0.453782     1.049732 
   106     1.469850    0.680114     0.680114     1.573304 
   107     1.480174    0.905775     0.905775     2.095323 
   108     1.490497    1.130542     1.130542     2.615278 
   109     1.500820    1.354195     1.354195     3.132651 
   110     1.511143    1.576512     1.576512     3.646936 
   111     1.521466    1.797274     1.797274     4.157625 
   112     1.531789    2.016264     2.016264     4.664212 
   113     1.542112    2.233265     2.233265     5.166199 
   114     1.552435    2.448064     2.448064     5.663093 
   115     1.562758    2.660448     2.660448     6.154401 
   116     1.573081    2.870209     2.870209     6.639639 
   117     1.583404    3.077139     3.077139     7.118329 
   118     1.593728    3.281034     3.281034     7.589999 
   119     1.604051    3.481693     3.481693     8.054182 
   120     1.614374    3.678919     3.678919     8.510424 
   121     1.624697    3.872517     3.872517     8.958272 
   122     1.635020    4.062295     4.062295     9.397285 
   123     1.645343    4.248067     4.248067     9.827029 
   124     1.655666    4.429649     4.429649    10.247083 
   125     1.665989    4.606864     4.606864    10.657031 
   126     1.676312    4.779533     4.779534    11.056468 
   127     1.686635    4.947490     4.947490    11.445002 
   128     1.696958    5.110568     5.110568    11.822248 
   129     1.707282    5.268604     5.268606    12.187834 
   130     1.717605    5.421446     5.421447    12.541395 
   131     1.727928    5.568941     5.568941    12.882601 
   132     1.738251    5.710943     5.710943    13.211098 
   133     1.748574    5.847313     5.847313    13.526553 
   134     1.758897    5.977916     5.977916    13.828680 
   135     1.769220    6.102624     6.102624    14.117169 
   136     1.779543    6.221313     6.221314    14.391735 
   137     1.789866    6.333867     6.333867    14.652093 
   138     1.800189    6.440173     6.440173    14.898020 
   139     1.810513    6.540128     6.540130    15.129242 
   140     1.820836    6.633634     6.633635    15.345550 
   141     1.831159    6.720597     6.720597    15.546720 
   142     1.841482    6.800933     6.800933    15.732566 
   143     1.851805    6.874561     6.874561    15.902890 
   144     1.862128    6.941410     6.941410    16.057518 
   145     1.872451    7.001412     7.001412    16.196326 
   146     1.882774    7.054509     7.054509    16.319153 
   147     1.893097    7.100650     7.100650    16.425887 
   148     1.903420    7.139786     7.139786    16.516430 
   149     1.913743    7.171882     7.171882    16.590681 
   150     1.924067    7.196905     7.196905    16.648555 
   151     1.934390    7.214830     7.214830    16.690026 
   152     1.944713    7.225640     7.225640    16.715033 
   153     1.955036    7.229323     7.229323    16.723551 
