# k-axis, Phonon energy [meV], band-1, band-2, band-3, band-4, band-5, band-6, band-7
     1     0.000000  -10.125362   -10.125362   -10.125362     0.000000     0.000000     0.000000    18.593194    18.593194    18.593194    25.554844    25.554844    25.554844 
     2     0.011992  -10.120632   -10.120632   -10.102468     0.558941     0.558941     0.859284    18.558889    18.558889    18.589611    25.556047    25.573094    25.573094 
     3     0.023983  -10.106583   -10.106583   -10.033683     1.117215     1.117215     1.716145    18.457151    18.457151    18.578849    25.559680    25.626716    25.626716 
     4     0.035975  -10.083648   -10.083648    -9.918686     1.674156     1.674156     2.568184    18.291253    18.291253    18.560860    25.565841    25.712659    25.712659 
     5     0.047967  -10.052575   -10.052575    -9.756926     2.229098     2.229098     3.413050    18.066006    18.066006    18.535543    25.574694    25.826460    25.826460 
     6     0.059958  -10.014451   -10.014451    -9.547576     2.781376     2.781376     4.248469    17.787039    17.787039    18.502812    25.586434    25.963011    25.963011 
     7     0.071950   -9.970759    -9.970759    -9.289469     3.330327     3.330327     5.072266    17.460240    17.460240    18.462482    25.601349    26.117143    26.117143 
     8     0.083941   -9.923432    -9.923432    -8.981007     3.875285     3.875285     5.882397    17.091337    17.091337    18.414427    25.619736    26.284132    26.284132 
     9     0.095933   -9.874935    -9.874935    -8.620003     4.415586     4.415586     6.676980    16.685799    16.685799    18.358425    25.641928    26.459824    26.459824 
    10     0.107925   -9.828356    -9.828356    -8.203435     4.950566     4.950566     7.454319    16.248831    16.248831    18.294278    25.668298    26.640760    26.640760 
    11     0.119916   -9.787497    -9.787497    -7.727039     5.479549     5.479549     8.212942    15.785543    15.785543    18.221775    25.699219    26.824127    26.824127 
    12     0.131908   -9.756968    -9.756968    -7.184590     6.001854     6.001854     8.951634    15.301165    15.301165    18.140692    25.735025    27.007704    27.007704 
    13     0.143900   -9.742250    -9.742250    -6.566576     6.516777     6.516777     9.669452    14.801352    14.801352    18.050806    25.776025    27.189744    27.189744 
    14     0.155891   -9.749684    -9.749684    -5.857452     7.023570     7.023570    10.365767    14.292514    14.292514    17.951920    25.822468    27.368932    27.368932 
    15     0.167883   -9.786348    -9.786348    -5.029188     7.521415     7.521415    11.040260    13.782088    13.782088    17.843822    25.874527    27.544277    27.544277 
    16     0.179875   -9.859726    -9.859726    -4.022398     8.009349     8.009349    11.692941    13.278853    13.278853    17.726350    25.932215    27.715035    27.715035 
    17     0.191866   -9.977150    -9.977150    -2.661887     8.486119     8.486119    12.324124    12.793186    12.793186    17.599370    25.995457    27.880709    27.880709 
    18     0.203858  -10.144952   -10.144952     1.368395     8.949846     8.949846    12.337084    12.337084    12.934399    17.462757    26.063993    28.040966    28.040966 
    19     0.215850  -10.367468   -10.367468     3.252491     9.397119     9.397119    11.924581    11.924581    13.524606    17.316460    26.137389    28.195618    28.195618 
    20     0.227841  -10.646084   -10.646084     4.349840     9.820117     9.820117    11.573549    11.573549    14.095708    17.160456    26.215025    28.344543    28.344543 
    21     0.239833  -10.978678   -10.978678     5.176445    10.195547    10.195547    11.315544    11.315544    14.648783    16.994819    26.296121    28.487752    28.487752 
    22     0.251824  -11.359677   -11.359677     5.840325    10.446633    10.446633    11.232635    11.232635    15.184909    16.819660    26.379733    28.625308    28.625308 
    23     0.263816  -11.780814   -11.780814     6.386258    10.487395    10.487395    11.412415    11.412415    15.705067    16.635153    26.464796    28.757285    28.757285 
    24     0.275808  -12.232295   -12.232295     6.838069    10.435526    10.435526    11.735125    11.735126    16.210112    16.441583    26.550106    28.883831    28.883831 
    25     0.287799  -12.704032   -12.704032     7.210527    10.393657    10.393657    12.093015    12.093015    16.239297    16.700701    26.634450    29.005109    29.005109 
    26     0.299791  -13.186637   -13.186637     7.513903    10.386190    10.386190    12.454535    12.454535    16.028767    17.177280    26.716562    29.121265    29.121265 
    27     0.311783  -13.671919   -13.671919     7.756033    10.414666    10.414666    12.809986    12.809986    15.810512    17.640060    26.795227    29.232463    29.232463 
    28     0.323774  -14.153222   -14.153222     7.943335    10.474639    10.474639    13.155530    13.155530    15.585228    18.089091    26.869305    29.338875    29.338875 
    29     0.335766  -14.625226   -14.625226     8.081376    10.560156    10.560156    13.489284    13.489284    15.353658    18.524224    26.937767    29.440638    29.440638 
    30     0.347758  -15.083915   -15.083915     8.175163    10.665248    10.665248    13.810194    13.810194    15.116683    18.945148    26.999720    29.537875    29.537875 
    31     0.359749  -15.526263   -15.526263     8.229324    10.784473    10.784473    14.117528    14.117528    14.875331    19.351505    27.054444    29.630712    29.630712 
    32     0.371741  -15.950064   -15.950064     8.248207    10.913110    10.913110    14.410815    14.410815    14.630731    19.742811    27.101396    29.719233    29.719233 
    33     0.383733  -16.353731   -16.353731     8.235954    11.047165    11.047165    14.384122    14.689659    14.689659    20.118545    27.140214    29.803478    29.803478 
    34     0.395724  -16.736135   -16.736135     8.196538    11.183325    11.183325    14.136894    14.953761    14.953761    20.478198    27.170775    29.883495    29.883495 
    35     0.407716  -17.096495   -17.096495     8.133805    11.318868    11.318868    13.890570    15.202862    15.202862    20.821201    27.193091    29.959283    29.959283 
    36     0.419707  -17.434266   -17.434266     8.051494    11.451586    11.451586    13.646751    15.436750    15.436750    21.146996    27.207386    30.030820    30.030820 
    37     0.431699  -17.749088   -17.749088     7.953269    11.579696    11.579696    13.407222    15.655252    15.655252    21.455012    27.214081    30.098067    30.098067 
    38     0.443691  -18.040764   -18.040764     7.842731    11.701767    11.701767    13.173792    15.858183    15.858183    21.744703    27.213722    30.160949    30.160949 
    39     0.455682  -18.309131   -18.309131     7.723437    11.816665    11.816665    12.948446    16.045405    16.045405    22.015451    27.207039    30.219406    30.219406 
    40     0.467674  -18.554128   -18.554128     7.598902    11.923491    11.923491    12.733168    16.216795    16.216795    22.266684    27.194877    30.273312    30.273312 
    41     0.479666  -18.775730   -18.775730     7.472596    12.021545    12.021545    12.530014    16.372241    16.372241    22.497721    27.178251    30.322582    30.322582 
    42     0.491657  -18.973936   -18.973936     7.347933    12.110282    12.110282    12.341076    16.511619    16.511619    22.707867    27.158253    30.367078    30.367078 
    43     0.503649  -19.148773   -19.148773     7.228242    12.168387    12.189286    12.189286    16.634855    16.634855    22.896391    27.136098    30.406703    30.406703 
    44     0.515641  -19.300252   -19.300252     7.116725    12.013927    12.258244    12.258244    16.741850    16.741850    23.062450    27.113075    30.441330    30.441330 
    45     0.527632  -19.428422   -19.428422     7.016396    11.879563    12.316921    12.316921    16.832554    16.832554    23.205188    27.090485    30.470862    30.470862 
    46     0.539624  -19.533297   -19.533297     6.930018    11.766990    12.365147    12.365147    16.906905    16.906905    23.323713    27.069669    30.495187    30.495187 
    47     0.551615  -19.614925   -19.614925     6.860017    11.677689    12.402798    12.402798    16.964840    16.964840    23.417144    27.051890    30.514218    30.514218 
    48     0.563607  -19.673320   -19.673320     6.808396    11.612869    12.429801    12.429801    17.006324    17.006324    23.484676    27.038265    30.527881    30.527881 
    49     0.575599  -19.708505   -19.708505     6.776660    11.573434    12.446092    12.446092    17.031331    17.031331    23.525651    27.029661    30.536150    30.536150 
    50     0.587590  -19.720470   -19.720470     6.765744    11.559941    12.451634    12.451634    17.039848    17.039848    23.539661    27.026661    30.538952    30.538952 
    51     0.587590  -19.720470   -19.720457     6.765746    11.559945    12.451646    12.451646    17.039848    17.039848    23.539661    27.026661    30.538952    30.538952 
    52     0.604549  -19.696021   -19.682197     6.764127    11.568172    12.443364    12.443835    17.000448    17.022442    23.499256    27.042666    30.536398    30.569997 
    53     0.621508  -19.624335   -19.569983     6.758088    11.591687    12.417477    12.420899    16.886981    16.971573    23.384624    27.088514    30.528823    30.658122 
    54     0.638467  -19.505823   -19.384409     6.743712    11.628519    12.369434    12.382758    16.705821    16.887948    23.206762    27.161104    30.516189    30.795429 
    55     0.655425  -19.341140   -19.126481     6.714292    11.675402    12.291801    12.329320    16.467234    16.772771    22.981441    27.255912    30.498398    30.971109 
    56     0.672384  -19.131180   -18.797562     6.659955    11.727784    12.174665    12.260463    16.184932    16.627702    22.726811    27.367643    30.475288    31.173643 
    57     0.689343  -18.877120   -18.399413     6.567105    11.779941    12.006187    12.176062    15.875775    16.454861    22.461444    27.490928    30.446649    31.392306 
    58     0.706302  -18.580362   -17.934203     6.417655    11.773535    11.825341    12.076008    15.559254    16.256878    22.202772    27.620773    30.412257    31.617838 
    59     0.723260  -18.242541   -17.404548     6.188069    11.464123    11.857523    11.960227    15.256458    16.036813    21.965859    27.752873    30.371777    31.842614 
    60     0.740219  -17.865481   -16.813585     5.848098    11.067015    11.828705    11.871758    14.987645    15.798201    21.762247    27.883710    30.324876    32.060521 
    61     0.757178  -17.451276   -16.165046     5.358174    10.574146    11.681508    11.867253    14.768312    15.545009    21.599101    28.010578    30.271118    32.266663 
    62     0.774137  -17.002158   -15.463591     4.660929     9.981061    11.518803    11.848533    14.605253    15.281638    21.478940    28.131508    30.210070    32.457109 
    63     0.791095  -16.520583   -14.715161     3.646212     9.287114    11.340861    11.824227    14.495295    15.012899    21.400051    28.245136    30.141199    32.628660 
    64     0.808054  -16.009153   -13.927913     1.904777     8.495546    11.148073    11.803433    14.427825    14.743937    21.357514    28.350631    30.063972    32.778663 
    65     0.825013  -15.470621   -13.113799    -2.637205     7.614578    10.940944    11.792291    14.389317    14.480157    21.344335    28.447496    29.977856    32.904862 
    66     0.841972  -14.907888   -12.291608    -4.252099     6.661887    10.720076    11.792784    14.227189    14.366790    21.352666    28.535572    29.882280    33.005274 
    67     0.858930  -14.323955   -11.492254    -5.419993     5.677797    10.486140    11.803512    13.990746    14.349482    21.374524    28.614820    29.776723    33.078137 
    68     0.875889  -13.721945   -10.766319    -6.364500     4.757625    10.239837    11.821106    13.776472    14.329125    21.402395    28.685315    29.660715    33.121914 
    69     0.892848  -13.105046   -10.187097    -7.154484     4.102957     9.981829    11.841427    13.589758    14.299667    21.429459    28.747143    29.533883    33.135180 
    70     0.909806  -12.476504    -9.828330    -7.821984     3.981077     9.712674    11.860322    13.435601    14.256807    21.449643    28.800393    29.395943    33.116744 
    71     0.926765  -11.839614    -9.708740    -8.385367     4.431468     9.432713    11.874034    13.318341    14.197619    21.457541    28.845063    29.246795    33.065615 
    72     0.943724  -11.197679    -9.767876    -8.856697     5.187420     9.141978    11.879394    13.241498    14.120293    21.448366    28.881116    29.086489    32.981122 
    73     0.960683  -10.554032    -9.914729    -9.244704     5.997995     8.840044    11.873888    13.207602    14.023837    21.417694    28.908367    28.915335    32.862907 
    74     0.977641  -10.076762    -9.912029    -9.556233     6.746161     8.525912    11.855663    13.218029    13.908076    21.361407    28.733902    28.926567    32.711057 
    75     0.994600  -10.209545    -9.797062    -9.275081     7.394858     8.197855    11.823451    13.272964    13.773632    21.275402    28.543010    28.935357    32.526203 
    76     1.011559  -10.288811    -9.972442    -8.646741     7.853286     7.939773    11.776362    13.371404    13.622055    21.155563    28.343812    28.934291    32.309535 
    77     1.028518  -10.302340   -10.087515    -8.030868     7.488633     8.388767    11.713477    13.456380    13.511241    20.997550    28.137782    28.922823    32.062951 
    78     1.045476  -10.245100   -10.147680    -7.431925     7.099231     8.754482    11.633060    13.281853    13.689363    20.796728    27.926718    28.900321    31.789055 
    79     1.062435  -10.158929   -10.116959    -6.855517     6.679282     9.052113    11.531323    13.107240    13.901902    20.548185    27.712704    28.866090    31.491180 
    80     1.079394  -10.128163    -9.922018    -6.309352     6.221928     9.299136    11.400948    12.946314    14.144357    20.246752    27.498107    28.819337    31.173271 
    81     1.096353  -10.063436    -9.668981    -5.804939     5.719656     9.515641    11.230739    12.817982    14.411844    19.887198    27.285506    28.759256    30.839827 
    82     1.113311   -9.974077    -9.372209    -5.360639     5.165661     9.724601    11.008544    12.743049    14.699292    19.464476    27.077604    28.684980    30.495571 
    83     1.130270   -9.870575    -9.052897    -5.006674     4.557794     9.951329    10.726760    12.738003    15.001530    18.974184    26.877128    28.595640    30.145266 
    84     1.147229   -9.764125    -8.739381    -4.791061     3.908861    10.221296    10.385012    12.811473    15.313526    18.413187    26.686707    28.490393    29.793274 
    85     1.164188   -9.665806    -8.464991    -4.776327     3.266424     9.987668    10.555655    12.965556    15.630369    17.780356    26.508747    28.368459    29.443316 
    86     1.181146   -9.585444    -8.262248    -5.002728     2.721868     9.540247    10.964826    13.198340    15.947461    17.078195    26.345304    28.229217    29.098168 
    87     1.198105   -9.530452    -8.154599    -5.434169     2.353700     9.047664    11.441038    13.504980    16.260461    16.316450    26.197966    28.072196    28.759616 
    88     1.215064   -9.504963    -8.149893    -5.978712     2.150781     8.513924    11.946104    13.877751    15.524156    16.565377    26.067750    27.897273    28.428490 
    89     1.232023   -9.509555    -8.239702    -6.557732     2.041205     7.942368    12.363835    14.306387    14.800956    16.858540    25.955064    27.704682    28.104853 
    90     1.248981   -9.541621    -8.404307    -7.127056     1.960446     7.335957    12.351796    14.470350    14.778540    17.136652    25.859736    27.495268    27.788356 
    91     1.265940   -9.596202    -8.619540    -7.664995     1.871874     6.697496    11.673715    14.751153    15.280585    17.396750    25.780984    27.270554    27.478617 
    92     1.282899   -9.666978    -8.862021    -8.160579     1.759212     6.029777    10.656728    15.301810    15.798152    17.636205    25.717581    27.033108    27.175734 
    93     1.299858   -9.747189    -9.111796    -8.607542     1.617133     5.335650     9.498098    15.913701    16.316499    17.852686    25.667927    26.786772    26.880748 
    94     1.316816   -9.830301    -9.353007    -9.001746     1.445666     4.618076     8.257367    16.518103    16.820453    18.044210    25.630162    26.537076    26.596264 
    95     1.333775   -9.910448    -9.573552    -9.340111     1.247386     3.880130     6.958616    17.082745    17.294144    18.209079    25.602378    26.291670    26.327017 
    96     1.350734   -9.982638    -9.764421    -9.620201     1.026071     3.125010     5.615936    17.585162    17.720610    18.345866    25.582665    26.060770    26.080482 
    97     1.367693  -10.042839    -9.919014    -9.840069     0.786050     2.356015     4.239931    18.005491    18.081652    18.453419    25.569325    25.857182    25.867088 
    98     1.384651  -10.087981   -10.032614    -9.998202     0.531905     1.576536     2.839741    18.324579    18.358413    18.530857    25.560907    25.695710    25.699777 
    99     1.401610  -10.115913   -10.102021   -10.093518     0.268316     0.790031     1.423766    18.524819    18.533274    18.577572    25.556295    25.591146    25.592113 
   100     1.418569  -10.125362   -10.125362   -10.125362     0.000000     0.000000     0.000000    18.593194    18.593194    18.593194    25.554844    25.554844    25.554844 
   101     1.418569  -10.125362   -10.125362   -10.125362     0.000000     0.000000     0.000000    18.593194    18.593194    18.593194    25.554844    25.554844    25.554844 
   102     1.428954  -10.119395   -10.116216   -10.116216     0.310086     0.310086     0.911062    18.564009    18.580697    18.580697    25.559779    25.559779    25.573280 
   103     1.439339  -10.101574   -10.088835   -10.088835     0.619343     0.619343     1.820162    18.477632    18.543391    18.543391    25.574470    25.574470    25.627596 
   104     1.449724  -10.072155   -10.043394   -10.043394     0.926945     0.926945     2.725315    18.337274    18.481773    18.481773    25.598622    25.598622    25.715027 
   105     1.460109  -10.031549    -9.980188    -9.980188     1.232078     1.232078     3.624497    18.147771    18.396636    18.396636    25.631712    25.631712    25.831543 
   106     1.470494   -9.980330    -9.899633    -9.899633     1.533936     1.533936     4.515626    17.914924    18.289046    18.289046    25.673121    25.673121    25.972496 
   107     1.480879   -9.919226    -9.802269    -9.802269     1.831735     1.831735     5.396543    17.644933    18.160305    18.160305    25.722106    25.722106    26.133186 
   108     1.491264   -9.849120    -9.688773    -9.688773     2.124711     2.124711     6.264983    17.344058    18.011839    18.011839    25.777884    25.777884    26.309287 
   109     1.501649   -9.771062    -9.559954    -9.559954     2.412133     2.412133     7.118527    17.018412    17.845247    17.845247    25.839651    25.839651    26.497018 
   110     1.512034   -9.686273    -9.416774    -9.416774     2.693299     2.693299     7.954506    16.674045    17.662191    17.662191    25.906638    25.906638    26.693303 
   111     1.522419   -9.596154    -9.260349    -9.260349     2.967559     2.967559     8.769824    16.317107    17.464406    17.464406    25.978112    25.978112    26.895738 
   112     1.532804   -9.502290    -9.091965    -9.091964     3.234307     3.234307     9.560600    15.954255    17.253640    17.253640    26.053418    26.053418    27.102499 
   113     1.543190   -9.406451    -8.913091    -8.913091     3.493001     3.493001    10.321372    15.593560    17.031703    17.031703    26.131971    26.131971    27.312310 
   114     1.553575   -9.310573    -8.725393    -8.725393     3.743167     3.743167    11.043257    15.246403    16.800393    16.800393    26.213253    26.213253    27.524341 
   115     1.563960   -9.216736    -8.530741    -8.530741     3.984410     3.984410    11.709175    14.932337    16.561546    16.561546    26.296840    26.296840    27.738145 
   116     1.574345   -9.127110    -8.331234    -8.331234     4.216420     4.216421    12.281208    14.691766    16.316971    16.316971    26.382336    26.382336    27.953535 
   117     1.584730   -9.043879    -8.129189    -8.129189     4.438986     4.438986    12.677042    14.609506    16.068502    16.068502    26.469432    26.469432    28.170574 
   118     1.595115   -8.969148    -7.927151    -7.927151     4.651991     4.651991    12.802237    14.782532    15.817964    15.817964    26.557867    26.557867    28.389461 
   119     1.605500   -8.904816    -7.727877    -7.727875     4.855419     4.855419    12.700052    15.170081    15.567152    15.567152    26.647381    26.647381    28.610505 
   120     1.615885   -8.852439    -7.534291    -7.534291     5.049345     5.049345    12.493192    15.317841    15.317841    15.651818    26.737762    26.737762    28.834029 
   121     1.626270   -8.813092    -7.349434    -7.349434     5.233925     5.233925    12.253963    15.071753    15.071753    16.157632    26.828826    26.828826    29.060342 
   122     1.636655   -8.787255    -7.176368    -7.176368     5.409375     5.409375    12.013588    14.830525    14.830525    16.658176    26.920360    26.920360    29.289667 
   123     1.647040   -8.774728    -7.018047    -7.018045     5.575947     5.575947    11.786146    14.595694    14.595694    17.140781    27.012180    27.012180    29.522093 
   124     1.657425   -8.774625    -6.877167    -6.877167     5.733893     5.733894    11.578475    14.368650    14.368650    17.599544    27.104086    27.104086    29.757593 
   125     1.667810   -8.785421    -6.755998    -6.755998     5.883437     5.883437    11.393786    14.150618    14.150618    18.031639    27.195856    27.195856    29.995920 
   126     1.678195   -8.805070    -6.656206    -6.656206     6.024749     6.024749    11.233148    13.942642    13.942642    18.435801    27.287267    27.287267    30.236614 
   127     1.688580   -8.831171    -6.578723    -6.578723     6.157918     6.157918    11.096204    13.745526    13.745526    18.811795    27.378082    27.378082    30.479045 
   128     1.698966   -8.861161    -6.523654    -6.523654     6.282957     6.282957    10.981612    13.559866    13.559866    19.159931    27.468029    27.468029    30.722368 
   129     1.709351   -8.892487    -6.490265    -6.490264     6.399798     6.399798    10.887376    13.386009    13.386009    19.481027    27.556861    27.556861    30.965580 
   130     1.719736   -8.922779    -6.477047    -6.477047     6.508318     6.508319    10.811108    13.224091    13.224091    19.776137    27.644267    27.644267    31.207551 
   131     1.730121   -8.949961    -6.481854    -6.481854     6.608362     6.608362    10.750249    13.074051    13.074051    20.046574    27.729962    27.729962    31.447019 
   132     1.740506   -8.972340    -6.502079    -6.502079     6.699776     6.699776    10.702242    12.935664    12.935664    20.293716    27.813624    27.813624    31.682680 
   133     1.750891   -8.988639    -6.534853    -6.534852     6.782441     6.782441    10.664665    12.808560    12.808560    20.519050    27.894954    27.894954    31.913233 
   134     1.761276   -8.998018    -6.577237    -6.577237     6.856302     6.856302    10.635314    12.692279    12.692279    20.724050    27.973632    27.973632    32.137339 
   135     1.771661   -9.000050    -6.626389    -6.626389     6.921392     6.921392    10.612262    12.586288    12.586288    20.910132    28.049334    28.049334    32.353746 
   136     1.782046   -8.994703    -6.679682    -6.679682     6.977850     6.977850    10.593878    12.490043    12.490043    21.078646    28.121776    28.121776    32.561239 
   137     1.792431   -8.982294    -6.734796    -6.734796     7.025933     7.025934    10.578839    12.402984    12.402984    21.230868    28.190647    28.190647    32.758715 
   138     1.802816   -8.963447    -6.789759    -6.789759     7.066024     7.066024    10.566109    12.324569    12.324569    21.367941    28.255650    28.255650    32.945143 
   139     1.813201   -8.939046    -6.842963    -6.842963     7.098625     7.098625    10.554922    12.254282    12.254282    21.490879    28.316524    28.316524    33.119596 
   140     1.823586   -8.910185    -6.893160    -6.893160     7.124352     7.124353    10.544751    12.191651    12.191651    21.600601    28.373009    28.373009    33.281266 
   141     1.833971   -8.878119    -6.939428    -6.939428     7.143925     7.143926    10.535269    12.136245    12.136245    21.697876    28.424870    28.424870    33.429434 
   142     1.844356   -8.844209    -6.981139    -6.981138     7.158142     7.158143    10.526324    12.087678    12.087678    21.783385    28.471871    28.471871    33.563494 
   143     1.854741   -8.809877    -7.017909    -7.017909     7.167859     7.167859    10.517895    12.045607    12.045607    21.857711    28.513838    28.513838    33.682899 
   144     1.865127   -8.776547    -7.049559    -7.049559     7.173956     7.173956    10.510064    12.009732    12.009732    21.921288    28.550573    28.550573    33.787228 
   145     1.875512   -8.745593    -7.076053    -7.076053     7.177308     7.177308    10.502976    11.979797    11.979797    21.974538    28.581928    28.581928    33.876109 
   146     1.885897   -8.718290    -7.097463    -7.097462     7.178740     7.178740    10.496813    11.955585    11.955585    22.017745    28.607790    28.607790    33.949257 
   147     1.896282   -8.695760    -7.113914    -7.113914     7.178995     7.178995    10.491767    11.936918    11.936918    22.051145    28.628023    28.628023    34.006437 
   148     1.906667   -8.678934    -7.125552    -7.125552     7.178699     7.178699    10.488011    11.923660    11.923660    22.074937    28.642579    28.642579    34.047474 
   149     1.917052   -8.668503    -7.132506    -7.132506     7.178320     7.178320    10.485688    11.915709    11.915709    22.089219    28.651356    28.651369    34.072246 
   150     1.927437   -8.664890    -7.134858    -7.134858     7.178184     7.178184    10.484909    11.913006    11.913006    22.094067    28.654357    28.654357    34.080676 
