# k-axis, Phonon energy [meV], band-1, band-2, band-3, band-4, band-5, band-6, band-7
     1     0.000000 -118.920017  -118.919955     0.000000     0.000000     0.000000    65.852932 
     2     0.012227 -166.918365  -163.674677     1.160618    65.833120   112.027163   117.928152 
     3     0.024454 -218.855447  -208.200234     2.320045    65.773746   170.533870   185.036927 
     4     0.036681 -263.546394  -242.952076     3.477091    65.674946   211.698702   237.042693 
     5     0.048908 -303.653428  -271.150211     4.630567    65.536931   243.811877   281.835055 
     6     0.061135 -340.648936  -294.576356     5.779293    65.360037   269.994346   322.282043 
     7     0.073362 -375.368419  -314.274298     6.922085    65.144683   291.809370   359.766280 
     8     0.085589 -408.323419  -330.912786     8.057774    64.891355   310.172172   395.063138 
     9     0.097815 -439.847193  -344.950422     9.185192    64.600672   325.674631   428.649568 
    10     0.110042 -470.165883  -356.718851    10.303184    64.273315   338.726378   460.837627 
    11     0.122269 -499.438428  -366.468267    11.410602    63.910078   349.626328   491.840314 
    12     0.134496 -527.778149  -374.393564    12.506309    63.511854   358.601116   521.807024 
    13     0.146723 -555.267862  -380.651083    13.589187    63.079635   365.829026   550.844876 
    14     0.158950 -581.967699  -385.369514    14.658106    62.614512   371.453131   579.031481 
    15     0.171177 -607.922044  -388.656719    15.711998    62.117662   375.592203   606.423126 
    16     0.183404 -633.162884  -390.605065    16.749760    61.590400   378.345923   633.060601 
    17     0.195631 -657.713156  -391.294642    17.770339    61.034114   379.800208   658.973041 
    18     0.207858 -681.588853  -390.796490    18.772680    60.450342   380.029943   684.180531 
    19     0.220085 -704.800388  -389.174088    19.755754    59.840683   379.101457   708.696460 
    20     0.232312 -727.353962  -386.484838    20.718571    59.206909   377.074632   732.528887 
    21     0.244539 -749.252301  -382.781803    21.660124    58.550857   374.003771   755.681656 
    22     0.256766 -770.495654  -378.113832    22.579461    57.874509   369.939335   778.155139 
    23     0.268993 -791.081914  -372.526673    23.475638    57.179985   364.927815   799.947475 
    24     0.281219 -811.007483  -366.063596    24.347726    56.469518   359.013349   821.054203 
    25     0.293446 -830.267404  -358.766009    25.194856    55.745462   352.237594   841.469617 
    26     0.305673 -848.855726  -350.673215    26.016149    55.010298   344.640844   861.186653 
    27     0.317900 -866.765877  -341.823274    26.810762    54.266678   336.261284   880.197374 
    28     0.330127 -883.990294  -332.253382    27.577876    53.517343   327.136604   898.492854 
    29     0.342354 -900.521663  -321.999616    28.316734    52.765194   317.303378   916.063920 
    30     0.354581 -916.351678  -311.097435    29.026570    52.013255   306.797437   932.900900 
    31     0.366808 -931.472526  -299.581925    29.706662    51.264689   295.654486   948.994000 
    32     0.379035 -945.875903  -287.487800    30.356317    50.522780   283.909489   964.333301 
    33     0.391262 -959.553996  -274.849650    30.974890    49.790926   271.598027   978.909010 
    34     0.403489 -972.498624  -261.702439    31.561737    49.072648   258.755187   992.711455 
    35     0.415716 -984.702347  -248.081004    32.116275    48.371553   245.416922  1005.731091 
    36     0.427943 -996.157356  -234.021177    32.637958    47.691325   231.619808  1017.958743 
    37     0.440170-1006.856830  -219.559901    33.126241    47.035706   217.401162  1029.385483 
    38     0.452397-1016.793703  -204.735241    33.580640    46.408491   202.800161  1040.003007 
    39     0.464623-1025.961528  -189.588108    34.000697    45.813449   187.858339  1049.803130 
    40     0.476850-1034.354478  -174.162641    34.385989    45.254337   172.620577  1058.778662 
    41     0.489077-1041.966726  -158.508554    34.736121    44.734823   157.137335  1066.922288 
    42     0.501304-1048.793189  -142.684119    35.050721    44.258492   141.467379  1074.227933 
    43     0.513531-1054.829279  -126.761987    35.329440    43.828753   125.683609  1080.689647 
    44     0.525758-1060.070781  -110.839459    35.571957    43.448803   109.882780  1086.302346 
    45     0.537985-1064.514224   -95.058528    35.777938    43.121595    94.205657  1091.061566 
    46     0.550212-1068.156385   -79.648695    35.947108    42.849769    78.878742  1094.963217 
    47     0.562439-1070.994783   -65.021497    36.079172    42.635594    64.307955  1098.004446 
    48     0.574666-1073.027435   -51.987281    36.173893    42.480929    51.295547  1100.182527 
    49     0.586893-1074.252977   -42.181467    36.231060    41.475265    42.387150  1101.495723 
    50     0.599120-1074.670294   -38.262162    36.250562    37.537784    42.355101  1101.943043 
    51     0.599120-1074.670294   -38.262162    36.250562    37.537784    42.355101  1101.943043 
    52     0.606172-1074.533420   -40.230630    36.252595    39.875539    42.351704  1101.802077 
    53     0.613224-1074.122798   -45.617908    36.258744    42.341488    46.172594  1101.379182 
    54     0.620276-1073.439545   -53.373923    36.268985    42.324491    55.062432  1100.675347 
    55     0.627328-1072.485395   -62.589034    36.283255    42.300761    65.462531  1099.692310 
    56     0.634381-1071.262704   -72.667951    36.301518    42.270349    76.719816  1098.432301 
    57     0.641433-1069.774696   -83.249867    36.323722    42.233365    88.461329  1096.898296 
    58     0.648485-1068.025214   -94.113491    36.349771    42.189886   100.467342  1095.094139 
    59     0.655537-1066.018722  -105.116443    36.379563    42.140033   112.600211  1093.024045 
    60     0.662589-1063.760922  -116.161412    36.413025    42.083970   124.767397  1090.693221 
    61     0.669641-1061.257766  -127.177444    36.450008    42.021818   136.902063  1088.107618 
    62     0.676693-1058.516320  -138.109257    36.490401    41.953791   148.952672  1085.274056 
    63     0.683746-1055.544643  -148.911510    36.534054    41.880047   160.876820  1082.200095 
    64     0.690798-1052.351539  -159.544903    36.580807    41.800824   172.637811  1078.894169 
    65     0.697850-1048.946800  -169.973480    36.630511    41.716332   184.202417  1075.365822 
    66     0.704902-1045.341213  -180.163769    36.682967    41.626843   195.539272  1071.625345 
    67     0.711954-1041.546681  -190.083532    36.738002    41.532606   206.618373  1067.684393 
    68     0.719006-1037.576098  -199.700661    36.795417    41.433905   217.409840  1063.555487 
    69     0.726059-1033.443721  -208.983292    36.855001    41.331064   227.883919  1059.252389 
    70     0.733111-1029.164675  -217.898569    36.916558    41.224379   238.010233  1054.789853 
    71     0.740163-1024.755450  -226.413020    36.979849    41.114210   247.757665  1050.184244 
    72     0.747215-1020.233900  -234.492053    37.044654    41.000893   257.093979  1045.453043 
    73     0.754267-1015.618868  -242.099713    37.110735    40.884823   265.985700  1040.614848 
    74     0.761319-1010.930564  -249.198064    37.177845    40.766372   274.398115  1035.690114 
    75     0.768371-1006.190561  -255.747928    37.245749    40.645950   282.294525  1030.700043 
    76     0.775424-1001.421174  -261.707398    37.314199    40.523979   289.636745  1025.667695 
    77     0.782476 -996.646209  -267.033207    37.382921    40.400916   296.384728  1020.616998 
    78     0.789528 -991.890212  -271.679110    37.451668    40.277197   302.496446  1015.573243 
    79     0.796580 -987.178476  -275.596630    37.520179    40.153279   307.927762  1010.562716 
    80     0.803632 -982.536913  -278.734440    37.588194    40.029671   312.632679  1005.612566 
    81     0.810684 -977.991558  -281.038360    37.655429    39.906844   316.562969  1000.750319 
    82     0.817737 -973.568448  -282.450864    37.721634    39.785318   319.668172   996.004240 
    83     0.824789 -969.293369  -282.910582    37.786538    39.665616   321.895969   991.401855 
    84     0.831841 -965.190995  -282.351804    37.849867    39.548244   323.191560   986.970933 
    85     0.838893 -961.284757  -280.703490    37.911348    39.433748   323.497543   982.737512 
    86     0.845945 -957.596476  -277.887904    37.970722    39.322687   322.754282   978.726511 
    87     0.852997 -954.145493  -273.818509    38.027728    39.215581   320.898550   974.960619 
    88     0.860050 -950.948544  -268.396615    38.082081    39.113012   317.863271   971.460044 
    89     0.867102 -948.019393  -261.507171    38.133533    39.015514   313.575795   968.241895 
    90     0.874154 -945.368329  -253.010697    38.181811    38.923670   307.956154   965.319438 
    91     0.881206 -943.001798  -242.732259    38.226654    38.838024   300.913842   962.702344 
    92     0.888258 -940.922778  -230.441874    38.267828    38.759124   292.342980   960.395820 
    93     0.895310 -939.130151  -215.820665    38.305047    38.687525   282.114878   958.401106 
    94     0.902362 -937.619083  -198.397631    38.338087    38.623775   270.066874   956.714854 
    95     0.909415 -936.381390  -177.415256    38.366690    38.568405   255.983986   955.329874 
    96     0.916467 -935.405296  -151.498601    38.390618    38.521937   239.566802   954.234634 
    97     0.923519 -934.676169  -117.574536    38.409636    38.484880   220.373706   953.414507 
    98     0.930571 -934.177150   -64.293511    38.423510    38.457728   197.705823   952.851637 
    99     0.937623 -933.888772    38.431990    38.440966    77.853774   170.354347   952.525694 
   100     0.944675 -933.790332    38.434829    38.435077   126.970894   137.860553   952.414112 
   101     0.944675 -933.790332    38.434829    38.435077   126.970894   137.860553   952.414112 
   102     0.958780 -934.129542   -82.878981    38.420584    38.461993   204.508729   952.800682 
   103     0.972884 -934.935908  -177.331198    38.381220    38.537336   256.804237   953.724705 
   104     0.986988 -936.022840  -239.128905    38.315176    38.663733   301.640364   954.980498 
   105     1.001093 -937.210445  -289.242364    38.220939    38.843256   341.406206   956.368950 
   106     1.015197 -938.330604  -332.397447    38.097145    39.077405   377.229111   957.704959 
   107     1.029301 -939.230575  -370.539026    37.942467    39.367084   409.736171   958.820159 
   108     1.043405 -939.773483  -404.677167    37.755741    39.712579   439.317055   959.564907 
   109     1.057510 -939.839069  -435.413049    37.535875    40.113543   466.235221   959.807907 
   110     1.071614 -939.322320  -463.140308    37.281877    40.569046   490.681101   959.435719 
   111     1.085718 -938.133352  -488.135916    36.992880    41.077574   512.800249   958.350770 
   112     1.099823 -936.195172  -510.606175    36.668114    41.637084   532.709081   956.470862 
   113     1.113927 -933.443188  -530.711764    36.306898    42.245069   550.504799   953.726564 
   114     1.128031 -929.823592  -548.583604    35.908699    42.898580   566.270343   950.060848 
   115     1.142135 -925.292495  -564.330924    35.473046    43.594331   580.079484   945.426847 
   116     1.156240 -919.814811  -578.048319    34.999591    44.328727   591.998673   939.787493 
   117     1.170344 -913.363264  -589.819229    34.488099    45.097923   602.089157   933.113897 
   118     1.184448 -905.917893  -599.719156    33.938434    45.897929   610.408215   925.384860 
   119     1.198553 -897.465184  -607.817281    33.350546    46.724591   617.010522   916.586000 
   120     1.212657 -887.997452  -614.178323    32.724496    47.573692   621.948398   906.709257 
   121     1.226761 -877.512215  -618.863527    32.060459    48.440994   625.272549   895.751657 
   122     1.240865 -866.011830  -621.931412    31.358683    49.322244   627.032445   883.715554 
   123     1.254970 -853.503240  -623.438017    30.619527    50.213227   627.276686   870.607769 
   124     1.269074 -839.997107  -623.437893    29.843424    51.109776   626.053003   856.438962 
   125     1.283178 -825.507564  -621.984104    29.030921    52.007837   623.408262   841.223641 
   126     1.297283 -810.051721  -619.127853    28.182638    52.903444   619.388582   824.979037 
   127     1.311387 -793.649415  -614.919104    27.299293    53.792728   614.039093   807.725237 
   128     1.325491 -776.322714  -609.406085    26.381679    54.671957   607.403312   789.484431 
   129     1.339596 -758.094679  -602.635041    25.430666    55.537560   599.523391   770.280177 
   130     1.353700 -738.989857  -594.649365    24.447219    56.386079   590.439253   750.136775 
   131     1.367804 -719.032672  -585.489723    23.432369    57.214228   580.187346   729.078524 
   132     1.381908 -698.246929  -575.192812    22.387217    58.018846   568.800775   707.129105 
   133     1.396013 -676.654449  -563.789875    21.312931    58.796957   556.307187   684.309470 
   134     1.410117 -654.274199  -551.306081    20.210761    59.545734   542.727657   660.637720 
   135     1.424221 -631.120686  -537.758291    19.081997    60.262500   528.074709   636.126006 
   136     1.438326 -607.201348  -523.153199    17.928004    60.944762   512.350202   610.779039 
   137     1.452430 -582.514699  -507.484111    16.750219    61.590152   495.541489   584.591240 
   138     1.466534 -557.046851  -490.727842    15.550092    62.196489   477.618072   557.542151 
   139     1.480638 -530.767059  -472.840007    14.329162    62.761763   458.525772   529.591976 
   140     1.494743 -503.622258  -453.748451    13.088990    63.284116   438.179415   500.673765 
   141     1.508847 -475.528637  -433.344938    11.831198    63.761823   416.452043   470.683623 
   142     1.522951 -446.360359  -411.472511    10.557425    64.193373   393.159053   439.465211 
   143     1.537056 -415.932071  -387.907384     9.269361    64.577388   368.034134   406.785199 
   144     1.551160 -383.970771  -362.328574     7.968723    64.912643   340.687370   372.293839 
   145     1.565264 -350.068936  -334.268429     6.657257    65.198106   310.532334   335.451818 
   146     1.579368 -313.597120  -303.018898     5.336730    65.432875   276.638186   295.384830 
   147     1.593473 -273.526784  -267.443209     4.008932    65.616217   237.393557   250.551306 
   148     1.607577 -228.024512  -225.539085     2.675664    65.747586   189.558601   197.799304 
   149     1.621681 -173.514845  -173.389253     1.338746    65.826573   124.438974   128.537505 
   150     1.635786 -118.920017  -118.919955     0.000000     0.000000     0.000000    65.852932 
   151     1.635786 -118.920017  -118.919955     0.000000     0.000000     0.000000    65.852932 
   152     1.642401 -118.873165  -118.873103     1.018620     1.969660     1.969662    65.843906 
   153     1.649017 -118.732646  -118.732596     2.037036     3.935879     3.935880    65.816816 
   154     1.655633 -118.498571  -118.498509     3.055043     5.895212     5.895214    65.771700 
   155     1.662248 -118.171103  -118.171053     4.072437     7.844218     7.844222    65.708545 
   156     1.668864 -117.750489  -117.750439     5.089013     9.779458     9.779462    65.627400 
   157     1.675479 -117.237025  -117.236976     6.104566    11.697489    11.697496    65.528290 
   158     1.682095 -116.631110  -116.631048     7.118889    13.594878    13.594878    65.411240 
   159     1.688711 -115.933152  -115.933103     8.131779    15.468179    15.468191    65.276325 
   160     1.695326 -115.143673  -115.143611     9.143028    17.313968    17.313981    65.123582 
   161     1.701942 -114.263216  -114.263154    10.152427    19.128800    19.128812    64.953060 
   162     1.708558 -113.292403  -113.292341    11.159770    20.909239    20.909252    64.764846 
   163     1.715173 -112.231903  -112.231854    12.164847    22.651853    22.651865    64.559014 
   164     1.721789 -111.082447  -111.082398    13.167445    24.353205    24.353218    64.335640 
   165     1.728405 -109.844792  -109.844743    14.167368    26.009839    26.009851    64.094808 
   166     1.735020 -108.519744  -108.519694    15.164391    27.618306    27.618318    63.836608 
   167     1.741636 -107.108157  -107.108107    16.158301    29.175135    29.175147    63.561161 
   168     1.748252 -105.610888  -105.610838    17.148876    30.676867    30.676880    63.268556 
   169     1.754867 -104.028853  -104.028804    18.135931    32.119995    32.120007    62.958916 
   170     1.761483 -102.362946  -102.362897    19.119229    33.500995    33.501008    62.632365 
   171     1.768099 -100.614085  -100.614035    20.098547    34.816324    34.816349    62.289015 
   172     1.774714  -98.783173   -98.783123    21.073686    36.062397    36.062410    61.929014 
   173     1.781330  -96.871091   -96.871042    22.044413    37.235558    37.235570    61.552487 
   174     1.787945  -94.878695   -94.878658    23.010502    38.332124    38.332136    61.159582 
   175     1.794561  -92.806791   -92.806754    23.971744    39.348301    39.348326    60.750448 
   176     1.801177  -90.656098   -90.656060    24.927915    40.280259    40.280271    60.325234 
   177     1.807792  -88.427247   -88.427198    25.878792    41.123992    41.124005    59.884113 
   178     1.814408  -86.120711   -86.120661    26.824139    41.875398    41.875410    59.427247 
   179     1.821024  -83.736823   -83.736786    27.763722    42.530198    42.530223    58.954796 
   180     1.827639  -81.275697   -81.275659    28.697341    43.083930    43.083943    58.466935 
   181     1.834255  -78.737169   -78.737132    29.624736    43.531858    43.531870    57.963861 
   182     1.840871  -76.120744   -76.120720    30.545696    43.868959    43.868972    57.445736 
   183     1.847486  -73.425494   -73.425456    31.459987    44.089842    44.089854    56.912759 
   184     1.854102  -70.649904   -70.649867    32.367372    44.188666    44.188691    56.365114 
   185     1.860718  -67.791780   -67.791756    33.267628    44.159023    44.159048    55.803014 
   186     1.867333  -64.848037   -64.847999    34.160495    43.993819    43.993844    55.226643 
   187     1.873949  -61.814333   -61.814308    35.045761    43.685047    43.685072    54.636201 
   188     1.880564  -58.684792   -58.684768    35.923193    43.223594    43.223619    54.031910 
   189     1.887180  -55.451344   -55.451320    36.792528    42.598908    42.598920    53.413969 
   190     1.893796  -52.102942   -52.102917    37.653557    41.798493    41.798506    52.782601 
   191     1.900411  -48.624287   -48.624262    38.506031    40.807360    40.807372    52.138004 
   192     1.907027  -44.993743   -44.993731    39.349702    39.607035    39.607048    51.480426 
   193     1.913643  -41.179969   -41.179945    38.174173    38.174186    40.184348    50.810054 
   194     1.920258  -37.135568   -37.135556    36.478387    36.478400    41.009720    50.127135 
   195     1.926874  -32.784713   -32.784688    34.478528    34.478540    41.825583    49.431880 
   196     1.933490  -27.994858   -27.994845    32.116226    32.116238    42.631701    48.724524 
   197     1.940105  -22.498452   -22.498440    29.303206    29.303219    43.427838    48.005292 
   198     1.946721  -15.578459   -15.578447    25.893297    25.893310    44.213735    47.274429 
   199     1.953337    2.525387     2.525388    21.607507    21.607507    44.989193    46.532149 
   200     1.959952   15.632787    15.632799    15.632911    15.632923    45.766312    45.766324 
